SAO LUIS EMBRACE-03 <312> 1 Min. Reported data

 DD MM YYYY  HH MM   D(Deg)  H(nT)   Z(nT)   I(Deg)   F(nT)

 08 11 2013  00 00  -21.0325 25994.5 -03503.0 -07.6748 26229.4
 08 11 2013  00 01  -21.0325 25994.4 -03502.9 -07.6748 26229.4
 08 11 2013  00 02  -21.0328 25994.4 -03503.0 -07.6749 26229.4
 08 11 2013  00 03  -21.0327 25994.4 -03503.0 -07.6748 26229.4
 08 11 2013  00 04  -21.0326 25994.5 -03503.0 -07.6748 26229.4
 08 11 2013  00 05  -21.0324 25994.5 -03503.0 -07.6749 26229.4
 08 11 2013  00 06  -21.0322 25994.4 -03502.9 -07.6748 26229.4
 08 11 2013  00 07  -21.0320 25994.5 -03503.0 -07.6749 26229.5
 08 11 2013  00 08  -21.0322 25994.7 -03503.1 -07.6751 26229.6
 08 11 2013  00 09  -21.0323 25994.6 -03503.1 -07.6751 26229.5
 08 11 2013  00 10  -21.0320 25994.9 -03503.2 -07.6752 26229.9
 08 11 2013  00 11  -21.0319 25995.0 -03503.3 -07.6755 26230.0
 08 11 2013  00 12  -21.0317 25994.9 -03503.3 -07.6754 26229.9
 08 11 2013  00 13  -21.0317 25994.5 -03503.1 -07.6751 26229.5
 08 11 2013  00 14  -21.0317 25994.1 -03502.9 -07.6748 26229.1
 08 11 2013  00 15  -21.0316 25993.8 -03502.7 -07.6745 26228.7
 08 11 2013  00 16  -21.0315 25993.5 -03502.6 -07.6743 26228.4
 08 11 2013  00 17  -21.0317 25993.2 -03502.6 -07.6743 26228.1
 08 11 2013  00 18  -21.0319 25993.0 -03502.5 -07.6742 26227.9
 08 11 2013  00 19  -21.0319 25992.7 -03502.4 -07.6742 26227.6
 08 11 2013  00 20  -21.0315 25992.8 -03502.5 -07.6742 26227.7
 08 11 2013  00 21  -21.0311 25992.8 -03502.5 -07.6742 26227.7
 08 11 2013  00 22  -21.0307 25993.0 -03502.6 -07.6745 26227.9
 08 11 2013  00 23  -21.0306 25993.2 -03502.8 -07.6748 26228.2
 08 11 2013  00 24  -21.0306 25993.5 -03503.0 -07.6752 26228.5
 08 11 2013  00 25  -21.0303 25993.8 -03503.2 -07.6755 26228.8
 08 11 2013  00 26  -21.0299 25994.0 -03503.3 -07.6756 26229.0
 08 11 2013  00 27  -21.0297 25994.1 -03503.4 -07.6758 26229.1
 08 11 2013  00 28  -21.0293 25994.3 -03503.5 -07.6759 26229.3
 08 11 2013  00 29  -21.0290 25994.4 -03503.6 -07.6761 26229.5
 08 11 2013  00 30  -21.0290 25994.4 -03503.6 -07.6762 26229.5
 08 11 2013  00 31  -21.0290 25994.5 -03503.6 -07.6763 26229.5
 08 11 2013  00 32  -21.0289 25994.5 -03503.6 -07.6762 26229.5
 08 11 2013  00 33  -21.0285 25994.2 -03503.5 -07.6760 26229.3
 08 11 2013  00 34  -21.0280 25994.1 -03503.4 -07.6758 26229.1
 08 11 2013  00 35  -21.0275 25994.1 -03503.3 -07.6757 26229.1
 08 11 2013  00 36  -21.0270 25994.3 -03503.5 -07.6759 26229.3
 08 11 2013  00 37  -21.0265 25994.3 -03503.5 -07.6760 26229.4
 08 11 2013  00 38  -21.0258 25994.5 -03503.5 -07.6761 26229.5
 08 11 2013  00 39  -21.0255 25994.6 -03503.6 -07.6762 26229.6
 08 11 2013  00 40  -21.0253 25994.5 -03503.7 -07.6763 26229.6
 08 11 2013  00 41  -21.0247 25994.4 -03503.6 -07.6762 26229.5
 08 11 2013  00 42  -21.0241 25994.5 -03503.6 -07.6762 26229.5
 08 11 2013  00 43  -21.0236 25994.4 -03503.6 -07.6762 26229.5
 08 11 2013  00 44  -21.0234 25994.4 -03503.6 -07.6763 26229.4
 08 11 2013  00 45  -21.0231 25994.3 -03503.6 -07.6763 26229.4
 08 11 2013  00 46  -21.0229 25994.4 -03503.7 -07.6764 26229.4
 08 11 2013  00 47  -21.0228 25994.5 -03503.7 -07.6765 26229.5
 08 11 2013  00 48  -21.0232 25994.7 -03503.9 -07.6768 26229.8
 08 11 2013  00 49  -21.0238 25994.9 -03504.1 -07.6771 26230.1
 08 11 2013  00 50  -21.0243 25995.1 -03504.1 -07.6772 26230.2
 08 11 2013  00 51  -21.0245 25995.2 -03504.2 -07.6772 26230.3
 08 11 2013  00 52  -21.0246 25995.2 -03504.1 -07.6771 26230.3
 08 11 2013  00 53  -21.0246 25995.1 -03504.0 -07.6769 26230.2
 08 11 2013  00 54  -21.0245 25995.0 -03504.0 -07.6768 26230.1
 08 11 2013  00 55  -21.0243 25995.0 -03503.9 -07.6766 26230.1
 08 11 2013  00 56  -21.0243 25995.0 -03503.9 -07.6766 26230.1
 08 11 2013  00 57  -21.0244 25995.1 -03503.9 -07.6766 26230.1
 08 11 2013  00 58  -21.0245 25995.2 -03503.9 -07.6767 26230.2
 08 11 2013  00 59  -21.0247 25995.3 -03504.0 -07.6768 26230.4
 08 11 2013  01 00  -21.0248 25995.5 -03504.0 -07.6768 26230.6
 08 11 2013  01 01  -21.0250 25995.7 -03504.1 -07.6770 26230.8
 08 11 2013  01 02  -21.0249 25995.7 -03504.1 -07.6770 26230.9
 08 11 2013  01 03  -21.0248 25995.9 -03504.2 -07.6771 26231.0
 08 11 2013  01 04  -21.0247 25996.1 -03504.3 -07.6772 26231.3
 08 11 2013  01 05  -21.0246 25996.3 -03504.3 -07.6772 26231.4
 08 11 2013  01 06  -21.0244 25996.5 -03504.3 -07.6772 26231.6
 08 11 2013  01 07  -21.0242 25996.6 -03504.4 -07.6772 26231.7
 08 11 2013  01 08  -21.0240 25996.6 -03504.3 -07.6772 26231.8
 08 11 2013  01 09  -21.0240 25996.7 -03504.3 -07.6771 26231.8
 08 11 2013  01 10  -21.0240 25996.8 -03504.3 -07.6770 26231.9
 08 11 2013  01 11  -21.0242 25996.8 -03504.3 -07.6770 26231.9
 08 11 2013  01 12  -21.0244 25996.8 -03504.3 -07.6770 26231.9
 08 11 2013  01 13  -21.0246 25996.8 -03504.3 -07.6770 26231.9
 08 11 2013  01 14  -21.0250 25996.7 -03504.2 -07.6768 26231.8
 08 11 2013  01 15  -21.0252 25996.5 -03504.1 -07.6767 26231.6
 08 11 2013  01 16  -21.0253 25996.3 -03504.0 -07.6764 26231.4
 08 11 2013  01 17  -21.0253 25996.1 -03503.8 -07.6762 26231.2
 08 11 2013  01 18  -21.0253 25996.1 -03503.8 -07.6761 26231.2
 08 11 2013  01 19  -21.0252 25996.1 -03503.8 -07.6761 26231.1
 08 11 2013  01 20  -21.0251 25996.1 -03503.8 -07.6761 26231.1
 08 11 2013  01 21  -21.0250 25996.3 -03503.9 -07.6763 26231.3
 08 11 2013  01 22  -21.0251 25996.4 -03504.0 -07.6764 26231.5
 08 11 2013  01 23  -21.0252 25996.6 -03504.1 -07.6766 26231.7
 08 11 2013  01 24  -21.0253 25996.7 -03504.1 -07.6766 26231.7
 08 11 2013  01 25  -21.0253 25996.8 -03504.2 -07.6767 26231.9
 08 11 2013  01 26  -21.0252 25997.0 -03504.3 -07.6769 26232.1
 08 11 2013  01 27  -21.0253 25997.4 -03504.4 -07.6771 26232.5
 08 11 2013  01 28  -21.0252 25997.5 -03504.5 -07.6773 26232.7
 08 11 2013  01 29  -21.0252 25997.7 -03504.6 -07.6773 26232.9
 08 11 2013  01 30  -21.0252 25997.9 -03504.6 -07.6774 26233.0
 08 11 2013  01 31  -21.0251 25998.0 -03504.7 -07.6775 26233.2
 08 11 2013  01 32  -21.0249 25998.3 -03504.8 -07.6776 26233.5
 08 11 2013  01 33  -21.0247 25998.6 -03504.9 -07.6778 26233.7
 08 11 2013  01 34  -21.0244 25998.9 -03505.0 -07.6779 26234.1
 08 11 2013  01 35  -21.0242 25999.1 -03505.1 -07.6781 26234.3
 08 11 2013  01 36  -21.0241 25999.3 -03505.2 -07.6782 26234.5
 08 11 2013  01 37  -21.0241 25999.4 -03505.2 -07.6783 26234.6
 08 11 2013  01 38  -21.0238 25999.3 -03505.2 -07.6781 26234.5
 08 11 2013  01 39  -21.0236 25999.2 -03505.1 -07.6781 26234.4
 08 11 2013  01 40  -21.0232 25999.0 -03505.0 -07.6780 26234.2
 08 11 2013  01 41  -21.0231 25998.7 -03504.9 -07.6777 26233.9
 08 11 2013  01 42  -21.0228 25998.2 -03504.6 -07.6773 26233.4
 08 11 2013  01 43  -21.0225 25997.8 -03504.4 -07.6770 26232.9
 08 11 2013  01 44  -21.0223 25997.6 -03504.3 -07.6768 26232.7
 08 11 2013  01 45  -21.0222 25997.4 -03504.3 -07.6768 26232.5
 08 11 2013  01 46  -21.0220 25997.4 -03504.3 -07.6768 26232.5
 08 11 2013  01 47  -21.0217 25997.7 -03504.5 -07.6772 26232.8
 08 11 2013  01 48  -21.0213 25998.1 -03504.8 -07.6777 26233.3
 08 11 2013  01 49  -21.0211 25998.5 -03505.0 -07.6781 26233.7
 08 11 2013  01 50  -21.0209 25998.9 -03505.3 -07.6786 26234.1
 08 11 2013  01 51  -21.0206 25999.0 -03505.4 -07.6788 26234.2
 08 11 2013  01 52  -21.0202 25998.8 -03505.3 -07.6787 26234.1
 08 11 2013  01 53  -21.0199 25998.5 -03505.2 -07.6785 26233.7
 08 11 2013  01 54  -21.0197 25998.2 -03505.1 -07.6783 26233.4
 08 11 2013  01 55  -21.0195 25998.0 -03505.0 -07.6782 26233.2
 08 11 2013  01 56  -21.0194 25997.8 -03505.0 -07.6781 26233.0
 08 11 2013  01 57  -21.0195 25997.9 -03505.0 -07.6783 26233.1
 08 11 2013  01 58  -21.0198 25998.0 -03505.2 -07.6785 26233.3
 08 11 2013  01 59  -21.0202 25998.2 -03505.3 -07.6788 26233.4
 08 11 2013  02 00  -21.0206 25998.3 -03505.4 -07.6789 26233.6
 08 11 2013  02 01  -21.0210 25998.4 -03505.5 -07.6791 26233.6
 08 11 2013  02 02  -21.0213 25998.4 -03505.5 -07.6791 26233.7
 08 11 2013  02 03  -21.0217 25998.6 -03505.6 -07.6793 26233.9
 08 11 2013  02 04  -21.0218 25998.7 -03505.6 -07.6793 26234.0
 08 11 2013  02 05  -21.0222 25998.7 -03505.6 -07.6792 26233.9
 08 11 2013  02 06  -21.0225 25998.4 -03505.5 -07.6790 26233.7
 08 11 2013  02 07  -21.0228 25998.2 -03505.3 -07.6787 26233.4
 08 11 2013  02 08  -21.0229 25998.0 -03505.1 -07.6785 26233.2
 08 11 2013  02 09  -21.0230 25997.9 -03505.1 -07.6783 26233.2
 08 11 2013  02 10  -21.0231 25998.1 -03505.1 -07.6785 26233.3
 08 11 2013  02 11  -21.0233 25998.4 -03505.3 -07.6787 26233.7
 08 11 2013  02 12  -21.0234 25998.8 -03505.5 -07.6790 26234.1
 08 11 2013  02 13  -21.0235 25999.4 -03505.8 -07.6794 26234.7
 08 11 2013  02 14  -21.0234 26000.0 -03506.0 -07.6798 26235.3
 08 11 2013  02 15  -21.0234 26000.6 -03506.2 -07.6801 26235.9
 08 11 2013  02 16  -21.0233 26000.9 -03506.3 -07.6802 26236.2
 08 11 2013  02 17  -21.0234 26000.9 -03506.3 -07.6802 26236.3
 08 11 2013  02 18  -21.0233 26000.7 -03506.2 -07.6799 26236.1
 08 11 2013  02 19  -21.0232 26000.4 -03505.9 -07.6795 26235.7
 08 11 2013  02 20  -21.0231 26000.0 -03505.6 -07.6789 26235.2
 08 11 2013  02 21  -21.0229 25999.7 -03505.4 -07.6785 26235.0
 08 11 2013  02 22  -21.0228 25999.5 -03505.3 -07.6783 26234.7
 08 11 2013  02 23  -21.0228 25999.3 -03505.2 -07.6781 26234.5
 08 11 2013  02 24  -21.0229 25999.3 -03505.1 -07.6781 26234.5
 08 11 2013  02 25  -21.0229 25999.4 -03505.2 -07.6782 26234.6
 08 11 2013  02 26  -21.0230 25999.7 -03505.4 -07.6785 26234.9
 08 11 2013  02 27  -21.0231 26000.1 -03505.6 -07.6788 26235.4
 08 11 2013  02 28  -21.0233 26000.5 -03505.8 -07.6792 26235.8
 08 11 2013  02 29  -21.0235 26000.8 -03505.9 -07.6793 26236.0
 08 11 2013  02 30  -21.0235 26001.0 -03505.9 -07.6793 26236.3
 08 11 2013  02 31  -21.0234 26001.1 -03505.9 -07.6793 26236.4
 08 11 2013  02 32  -21.0232 26001.2 -03505.9 -07.6792 26236.5
 08 11 2013  02 33  -21.0230 26001.6 -03506.0 -07.6793 26236.9
 08 11 2013  02 34  -21.0226 26002.1 -03506.2 -07.6795 26237.4
 08 11 2013  02 35  -21.0222 26002.4 -03506.3 -07.6797 26237.7
 08 11 2013  02 36  -21.0218 26002.5 -03506.3 -07.6796 26237.8
 08 11 2013  02 37  -21.0212 26002.3 -03506.1 -07.6794 26237.6
 08 11 2013  02 38  -21.0204 26002.3 -03506.0 -07.6791 26237.6
 08 11 2013  02 39  -21.0198 26002.1 -03505.9 -07.6790 26237.4
 08 11 2013  02 40  -21.0192 26002.1 -03505.9 -07.6788 26237.4
 08 11 2013  02 41  -21.0187 26001.9 -03505.8 -07.6787 26237.2
 08 11 2013  02 42  -21.0183 26001.7 -03505.7 -07.6786 26237.0
 08 11 2013  02 43  -21.0181 26001.6 -03505.7 -07.6786 26236.9
 08 11 2013  02 44  -21.0181 26001.5 -03505.6 -07.6786 26236.8
 08 11 2013  02 45  -21.0181 26001.5 -03505.6 -07.6786 26236.7
 08 11 2013  02 46  -21.0183 26001.4 -03505.7 -07.6786 26236.7
 08 11 2013  02 47  -21.0184 26001.5 -03505.6 -07.6786 26236.7
 08 11 2013  02 48  -21.0186 26001.5 -03505.7 -07.6786 26236.7
 08 11 2013  02 49  -21.0189 26001.4 -03505.7 -07.6787 26236.7
 08 11 2013  02 50  -21.0192 26001.4 -03505.7 -07.6788 26236.7
 08 11 2013  02 51  -21.0194 26001.4 -03505.7 -07.6787 26236.7
 08 11 2013  02 52  -21.0195 26001.4 -03505.7 -07.6788 26236.7
 08 11 2013  02 53  -21.0197 26001.5 -03505.8 -07.6788 26236.8
 08 11 2013  02 54  -21.0197 26001.5 -03505.8 -07.6789 26236.8
 08 11 2013  02 55  -21.0197 26001.6 -03505.8 -07.6789 26236.9
 08 11 2013  02 56  -21.0197 26001.6 -03505.8 -07.6789 26236.9
 08 11 2013  02 57  -21.0198 26001.7 -03505.8 -07.6789 26237.0
 08 11 2013  02 58  -21.0199 26001.8 -03505.9 -07.6790 26237.0
 08 11 2013  02 59  -21.0200 26001.8 -03505.9 -07.6791 26237.1
 08 11 2013  03 00  -21.0201 26001.8 -03506.0 -07.6791 26237.1
 08 11 2013  03 01  -21.0201 26001.9 -03506.0 -07.6792 26237.2
 08 11 2013  03 02  -21.0200 26002.0 -03506.0 -07.6793 26237.3
 08 11 2013  03 03  -21.0199 26002.0 -03506.1 -07.6793 26237.3
 08 11 2013  03 04  -21.0198 26002.2 -03506.1 -07.6794 26237.6
 08 11 2013  03 05  -21.0198 26002.6 -03506.4 -07.6798 26238.0
 08 11 2013  03 06  -21.0199 26002.9 -03506.5 -07.6801 26238.3
 08 11 2013  03 07  -21.0199 26003.1 -03506.7 -07.6803 26238.5
 08 11 2013  03 08  -21.0198 26003.2 -03506.7 -07.6804 26238.6
 08 11 2013  03 09  -21.0198 26003.2 -03506.6 -07.6802 26238.5
 08 11 2013  03 10  -21.0197 26002.9 -03506.6 -07.6801 26238.3
 08 11 2013  03 11  -21.0194 26002.6 -03506.4 -07.6798 26237.9
 08 11 2013  03 12  -21.0192 26002.3 -03506.2 -07.6795 26237.6
 08 11 2013  03 13  -21.0189 26002.2 -03506.1 -07.6794 26237.5
 08 11 2013  03 14  -21.0189 26002.3 -03506.2 -07.6796 26237.6
 08 11 2013  03 15  -21.0190 26002.5 -03506.4 -07.6798 26237.8
 08 11 2013  03 16  -21.0190 26002.8 -03506.6 -07.6802 26238.2
 08 11 2013  03 17  -21.0190 26003.3 -03506.8 -07.6806 26238.7
 08 11 2013  03 18  -21.0189 26003.7 -03507.1 -07.6810 26239.1
 08 11 2013  03 19  -21.0187 26004.0 -03507.2 -07.6813 26239.4
 08 11 2013  03 20  -21.0185 26004.2 -03507.3 -07.6814 26239.6
 08 11 2013  03 21  -21.0181 26004.2 -03507.3 -07.6814 26239.6
 08 11 2013  03 22  -21.0176 26004.1 -03507.3 -07.6813 26239.5
 08 11 2013  03 23  -21.0171 26003.8 -03507.1 -07.6810 26239.2
 08 11 2013  03 24  -21.0167 26003.4 -03506.9 -07.6807 26238.8
 08 11 2013  03 25  -21.0164 26002.8 -03506.6 -07.6803 26238.2
 08 11 2013  03 26  -21.0161 26002.3 -03506.3 -07.6798 26237.7
 08 11 2013  03 27  -21.0157 26001.9 -03506.1 -07.6795 26237.2
 08 11 2013  03 28  -21.0157 26001.7 -03506.1 -07.6795 26237.0
 08 11 2013  03 29  -21.0157 26001.7 -03506.1 -07.6795 26237.0
 08 11 2013  03 30  -21.0160 26001.8 -03506.3 -07.6798 26237.2
 08 11 2013  03 31  -21.0163 26002.1 -03506.4 -07.6801 26237.4
 08 11 2013  03 32  -21.0168 26002.3 -03506.6 -07.6804 26237.7
 08 11 2013  03 33  -21.0173 26002.4 -03506.7 -07.6806 26237.8
 08 11 2013  03 34  -21.0176 26002.5 -03506.8 -07.6807 26237.9
 08 11 2013  03 35  -21.0179 26002.6 -03506.8 -07.6807 26238.0
 08 11 2013  03 36  -21.0182 26002.6 -03506.7 -07.6806 26238.0
 08 11 2013  03 37  -21.0183 26002.6 -03506.7 -07.6806 26238.0
 08 11 2013  03 38  -21.0185 26002.8 -03506.8 -07.6806 26238.2
 08 11 2013  03 39  -21.0186 26003.0 -03506.8 -07.6806 26238.4
 08 11 2013  03 40  -21.0186 26003.2 -03506.8 -07.6806 26238.6
 08 11 2013  03 41  -21.0185 26003.4 -03506.9 -07.6807 26238.8
 08 11 2013  03 42  -21.0185 26003.5 -03506.9 -07.6808 26238.9
 08 11 2013  03 43  -21.0184 26003.7 -03507.0 -07.6808 26239.1
 08 11 2013  03 44  -21.0184 26003.8 -03507.0 -07.6808 26239.2
 08 11 2013  03 45  -21.0183 26003.8 -03506.9 -07.6807 26239.2
 08 11 2013  03 46  -21.0181 26003.8 -03506.9 -07.6806 26239.2
 08 11 2013  03 47  -21.0181 26003.8 -03506.9 -07.6806 26239.3
 08 11 2013  03 48  -21.0178 26003.9 -03506.8 -07.6805 26239.3
 08 11 2013  03 49  -21.0176 26003.7 -03506.8 -07.6804 26239.1
 08 11 2013  03 50  -21.0174 26003.5 -03506.7 -07.6802 26238.9
 08 11 2013  03 51  -21.0171 26003.4 -03506.6 -07.6801 26238.8
 08 11 2013  03 52  -21.0168 26003.5 -03506.6 -07.6801 26238.9
 08 11 2013  03 53  -21.0166 26003.7 -03506.7 -07.6802 26239.0
 08 11 2013  03 54  -21.0167 26003.7 -03506.7 -07.6803 26239.1
 08 11 2013  03 55  -21.0166 26003.6 -03506.7 -07.6803 26239.0
 08 11 2013  03 56  -21.0165 26003.5 -03506.7 -07.6802 26238.9
 08 11 2013  03 57  -21.0166 26003.4 -03506.6 -07.6801 26238.8
 08 11 2013  03 58  -21.0169 26003.4 -03506.6 -07.6801 26238.8
 08 11 2013  03 59  -21.0174 26003.4 -03506.6 -07.6801 26238.7
 08 11 2013  04 00  -21.0177 26003.3 -03506.6 -07.6801 26238.6
 08 11 2013  04 01  -21.0179 26003.2 -03506.5 -07.6798 26238.5
 08 11 2013  04 02  -21.0181 26003.1 -03506.4 -07.6798 26238.5
 08 11 2013  04 03  -21.0182 26003.2 -03506.4 -07.6797 26238.5
 08 11 2013  04 04  -21.0183 26003.2 -03506.4 -07.6797 26238.5
 08 11 2013  04 05  -21.0183 26003.2 -03506.4 -07.6797 26238.5
 08 11 2013  04 06  -21.0181 26003.2 -03506.3 -07.6796 26238.5
 08 11 2013  04 07  -21.0180 26003.2 -03506.3 -07.6796 26238.6
 08 11 2013  04 08  -21.0180 26003.4 -03506.4 -07.6797 26238.8
 08 11 2013  04 09  -21.0182 26003.6 -03506.5 -07.6797 26239.0
 08 11 2013  04 10  -21.0183 26003.7 -03506.5 -07.6797 26239.0
 08 11 2013  04 11  -21.0182 26003.7 -03506.4 -07.6796 26239.0
 08 11 2013  04 12  -21.0180 26003.6 -03506.4 -07.6795 26239.0
 08 11 2013  04 13  -21.0178 26003.5 -03506.3 -07.6793 26238.8
 08 11 2013  04 14  -21.0176 26003.4 -03506.2 -07.6791 26238.7
 08 11 2013  04 15  -21.0176 26003.3 -03506.1 -07.6790 26238.7
 08 11 2013  04 16  -21.0177 26003.3 -03506.1 -07.6789 26238.6
 08 11 2013  04 17  -21.0178 26003.3 -03506.1 -07.6790 26238.6
 08 11 2013  04 18  -21.0181 26003.4 -03506.1 -07.6790 26238.7
 08 11 2013  04 19  -21.0183 26003.5 -03506.2 -07.6791 26238.8
 08 11 2013  04 20  -21.0185 26003.6 -03506.2 -07.6792 26238.9
 08 11 2013  04 21  -21.0188 26003.7 -03506.2 -07.6792 26239.1
 08 11 2013  04 22  -21.0190 26003.8 -03506.2 -07.6792 26239.1
 08 11 2013  04 23  -21.0190 26003.9 -03506.2 -07.6791 26239.2
 08 11 2013  04 24  -21.0191 26004.0 -03506.2 -07.6791 26239.3
 08 11 2013  04 25  -21.0193 26004.2 -03506.3 -07.6791 26239.5
 08 11 2013  04 26  -21.0192 26004.8 -03506.5 -07.6794 26240.1
 08 11 2013  04 27  -21.0189 26005.3 -03506.7 -07.6797 26240.7
 08 11 2013  04 28  -21.0185 26005.7 -03506.8 -07.6798 26241.0
 08 11 2013  04 29  -21.0181 26005.7 -03506.7 -07.6797 26241.1
 08 11 2013  04 30  -21.0176 26005.8 -03506.7 -07.6796 26241.1
 08 11 2013  04 31  -21.0171 26005.8 -03506.7 -07.6795 26241.2
 08 11 2013  04 32  -21.0166 26005.9 -03506.6 -07.6794 26241.3
 08 11 2013  04 33  -21.0162 26005.9 -03506.6 -07.6794 26241.3
 08 11 2013  04 34  -21.0160 26005.8 -03506.5 -07.6792 26241.2
 08 11 2013  04 35  -21.0157 26005.7 -03506.4 -07.6790 26241.0
 08 11 2013  04 36  -21.0154 26005.3 -03506.2 -07.6786 26240.6
 08 11 2013  04 37  -21.0150 26004.9 -03506.0 -07.6783 26240.2
 08 11 2013  04 38  -21.0150 26004.6 -03505.8 -07.6780 26239.8
 08 11 2013  04 39  -21.0152 26004.4 -03505.7 -07.6779 26239.6
 08 11 2013  04 40  -21.0156 26004.2 -03505.7 -07.6779 26239.5
 08 11 2013  04 41  -21.0160 26004.1 -03505.7 -07.6778 26239.4
 08 11 2013  04 42  -21.0164 26004.1 -03505.7 -07.6779 26239.3
 08 11 2013  04 43  -21.0168 26004.0 -03505.7 -07.6780 26239.3
 08 11 2013  04 44  -21.0171 26004.2 -03505.7 -07.6780 26239.4
 08 11 2013  04 45  -21.0176 26004.3 -03505.8 -07.6782 26239.6
 08 11 2013  04 46  -21.0180 26004.5 -03505.9 -07.6783 26239.7
 08 11 2013  04 47  -21.0182 26004.6 -03505.9 -07.6783 26239.8
 08 11 2013  04 48  -21.0186 26004.6 -03505.9 -07.6782 26239.8
 08 11 2013  04 49  -21.0190 26004.6 -03505.9 -07.6782 26239.8
 08 11 2013  04 50  -21.0195 26004.6 -03505.9 -07.6782 26239.9
 08 11 2013  04 51  -21.0197 26004.6 -03505.8 -07.6781 26239.8
 08 11 2013  04 52  -21.0198 26004.5 -03505.8 -07.6779 26239.8
 08 11 2013  04 53  -21.0198 26004.6 -03505.7 -07.6778 26239.8
 08 11 2013  04 54  -21.0201 26004.7 -03505.7 -07.6779 26239.9
 08 11 2013  04 55  -21.0203 26004.8 -03505.8 -07.6779 26240.0
 08 11 2013  04 56  -21.0207 26004.8 -03505.8 -07.6780 26240.1
 08 11 2013  04 57  -21.0211 26004.9 -03505.8 -07.6779 26240.1
 08 11 2013  04 58  -21.0214 26004.9 -03505.8 -07.6779 26240.1
 08 11 2013  04 59  -21.0217 26004.9 -03505.7 -07.6777 26240.1
 08 11 2013  05 00  -21.0219 26004.8 -03505.7 -07.6776 26240.1
 08 11 2013  05 01  -21.0222 26004.8 -03505.6 -07.6776 26240.1
 08 11 2013  05 02  -21.0223 26004.8 -03505.6 -07.6774 26240.0
 08 11 2013  05 03  -21.0225 26004.9 -03505.6 -07.6775 26240.1
 08 11 2013  05 04  -21.0227 26005.0 -03505.6 -07.6775 26240.2
 08 11 2013  05 05  -21.0229 26005.1 -03505.6 -07.6775 26240.4
 08 11 2013  05 06  -21.0232 26005.3 -03505.7 -07.6776 26240.5
 08 11 2013  05 07  -21.0233 26005.4 -03505.7 -07.6776 26240.6
 08 11 2013  05 08  -21.0234 26005.5 -03505.7 -07.6775 26240.7
 08 11 2013  05 09  -21.0236 26005.6 -03505.8 -07.6777 26240.8
 08 11 2013  05 10  -21.0238 26005.7 -03505.7 -07.6776 26240.9
 08 11 2013  05 11  -21.0242 26005.7 -03505.7 -07.6776 26240.9
 08 11 2013  05 12  -21.0245 26005.6 -03505.7 -07.6775 26240.9
 08 11 2013  05 13  -21.0247 26005.6 -03505.6 -07.6772 26240.8
 08 11 2013  05 14  -21.0249 26005.6 -03505.6 -07.6772 26240.8
 08 11 2013  05 15  -21.0249 26005.6 -03505.5 -07.6771 26240.8
 08 11 2013  05 16  -21.0250 26005.7 -03505.5 -07.6771 26240.9
 08 11 2013  05 17  -21.0251 26005.8 -03505.6 -07.6771 26241.0
 08 11 2013  05 18  -21.0251 26006.1 -03505.7 -07.6772 26241.4
 08 11 2013  05 19  -21.0252 26006.3 -03505.7 -07.6774 26241.6
 08 11 2013  05 20  -21.0251 26006.6 -03505.9 -07.6775 26241.8
 08 11 2013  05 21  -21.0251 26006.9 -03505.9 -07.6776 26242.2
 08 11 2013  05 22  -21.0252 26007.2 -03506.0 -07.6777 26242.4
 08 11 2013  05 23  -21.0253 26007.4 -03506.1 -07.6778 26242.6
 08 11 2013  05 24  -21.0254 26007.3 -03506.0 -07.6777 26242.6
 08 11 2013  05 25  -21.0254 26007.5 -03506.1 -07.6777 26242.8
 08 11 2013  05 26  -21.0256 26007.6 -03506.0 -07.6776 26242.8
 08 11 2013  05 27  -21.0259 26007.8 -03506.1 -07.6777 26243.0
 08 11 2013  05 28  -21.0264 26007.9 -03506.1 -07.6778 26243.2
 08 11 2013  05 29  -21.0268 26008.0 -03506.1 -07.6777 26243.3
 08 11 2013  05 30  -21.0272 26008.3 -03506.2 -07.6778 26243.6
 08 11 2013  05 31  -21.0278 26008.4 -03506.3 -07.6779 26243.7
 08 11 2013  05 32  -21.0281 26008.5 -03506.2 -07.6778 26243.8
 08 11 2013  05 33  -21.0287 26008.7 -03506.2 -07.6778 26244.0
 08 11 2013  05 34  -21.0292 26008.7 -03506.2 -07.6776 26244.0
 08 11 2013  05 35  -21.0296 26008.8 -03506.1 -07.6774 26244.0
 08 11 2013  05 36  -21.0299 26008.7 -03506.0 -07.6772 26244.0
 08 11 2013  05 37  -21.0299 26008.7 -03505.9 -07.6770 26244.0
 08 11 2013  05 38  -21.0299 26008.8 -03505.9 -07.6769 26244.0
 08 11 2013  05 39  -21.0300 26008.8 -03505.8 -07.6768 26244.0
 08 11 2013  05 40  -21.0298 26008.9 -03505.8 -07.6767 26244.1
 08 11 2013  05 41  -21.0296 26009.0 -03505.8 -07.6767 26244.2
 08 11 2013  05 42  -21.0295 26009.3 -03505.9 -07.6769 26244.5
 08 11 2013  05 43  -21.0295 26009.4 -03505.9 -07.6769 26244.6
 08 11 2013  05 44  -21.0293 26009.2 -03505.8 -07.6767 26244.4
 08 11 2013  05 45  -21.0291 26008.6 -03505.5 -07.6761 26243.7
 08 11 2013  05 46  -21.0291 26007.9 -03505.1 -07.6755 26243.0
 08 11 2013  05 47  -21.0293 26007.6 -03504.9 -07.6751 26242.7
 08 11 2013  05 48  -21.0293 26007.5 -03504.8 -07.6749 26242.5
 08 11 2013  05 49  -21.0294 26007.5 -03504.8 -07.6750 26242.6
 08 11 2013  05 50  -21.0292 26007.6 -03504.9 -07.6751 26242.7
 08 11 2013  05 51  -21.0290 26007.5 -03504.8 -07.6751 26242.6
 08 11 2013  05 52  -21.0288 26007.5 -03504.8 -07.6751 26242.6
 08 11 2013  05 53  -21.0288 26007.6 -03504.9 -07.6752 26242.7
 08 11 2013  05 54  -21.0286 26007.6 -03504.9 -07.6753 26242.7
 08 11 2013  05 55  -21.0283 26007.5 -03504.9 -07.6752 26242.7
 08 11 2013  05 56  -21.0281 26007.6 -03505.0 -07.6754 26242.7
 08 11 2013  05 57  -21.0277 26007.5 -03505.0 -07.6754 26242.6
 08 11 2013  05 58  -21.0273 26007.4 -03504.9 -07.6752 26242.5
 08 11 2013  05 59  -21.0270 26007.4 -03504.9 -07.6752 26242.5
 08 11 2013  06 00  -21.0266 26007.3 -03504.9 -07.6752 26242.4
 08 11 2013  06 01  -21.0262 26007.2 -03504.9 -07.6752 26242.3
 08 11 2013  06 02  -21.0258 26007.0 -03504.8 -07.6752 26242.1
 08 11 2013  06 03  -21.0251 26006.8 -03504.7 -07.6750 26241.9
 08 11 2013  06 04  -21.0245 26006.7 -03504.6 -07.6749 26241.7
 08 11 2013  06 05  -21.0240 26006.5 -03504.6 -07.6749 26241.6
 08 11 2013  06 06  -21.0235 26006.5 -03504.6 -07.6750 26241.5
 08 11 2013  06 07  -21.0231 26006.5 -03504.7 -07.6751 26241.6
 08 11 2013  06 08  -21.0226 26006.6 -03504.9 -07.6754 26241.7
 08 11 2013  06 09  -21.0218 26006.8 -03505.0 -07.6756 26241.9
 08 11 2013  06 10  -21.0210 26006.8 -03505.1 -07.6758 26242.0
 08 11 2013  06 11  -21.0202 26006.7 -03505.1 -07.6758 26241.8
 08 11 2013  06 12  -21.0195 26006.4 -03505.0 -07.6758 26241.5
 08 11 2013  06 13  -21.0188 26006.0 -03504.9 -07.6756 26241.1
 08 11 2013  06 14  -21.0184 26005.6 -03504.8 -07.6755 26240.8
 08 11 2013  06 15  -21.0186 26005.3 -03504.7 -07.6755 26240.4
 08 11 2013  06 16  -21.0189 26005.2 -03504.8 -07.6756 26240.3
 08 11 2013  06 17  -21.0194 26005.2 -03504.9 -07.6759 26240.4
 08 11 2013  06 18  -21.0199 26005.3 -03505.1 -07.6762 26240.5
 08 11 2013  06 19  -21.0205 26005.4 -03505.2 -07.6764 26240.5
 08 11 2013  06 20  -21.0211 26005.5 -03505.3 -07.6766 26240.7
 08 11 2013  06 21  -21.0218 26005.6 -03505.4 -07.6768 26240.8
 08 11 2013  06 22  -21.0224 26005.7 -03505.4 -07.6769 26240.9
 08 11 2013  06 23  -21.0231 26005.8 -03505.5 -07.6770 26241.0
 08 11 2013  06 24  -21.0236 26006.1 -03505.6 -07.6771 26241.3
 08 11 2013  06 25  -21.0242 26006.2 -03505.7 -07.6772 26241.5
 08 11 2013  06 26  -21.0247 26006.4 -03505.7 -07.6773 26241.6
 08 11 2013  06 27  -21.0251 26006.5 -03505.7 -07.6773 26241.7
 08 11 2013  06 28  -21.0252 26006.6 -03505.7 -07.6772 26241.8
 08 11 2013  06 29  -21.0251 26006.5 -03505.6 -07.6771 26241.8
 08 11 2013  06 30  -21.0253 26006.4 -03505.6 -07.6770 26241.6
 08 11 2013  06 31  -21.0253 26006.4 -03505.5 -07.6768 26241.6
 08 11 2013  06 32  -21.0254 26006.4 -03505.5 -07.6767 26241.6
 08 11 2013  06 33  -21.0254 26006.4 -03505.5 -07.6768 26241.6
 08 11 2013  06 34  -21.0254 26006.6 -03505.5 -07.6768 26241.8
 08 11 2013  06 35  -21.0254 26006.7 -03505.6 -07.6769 26241.9
 08 11 2013  06 36  -21.0254 26006.9 -03505.7 -07.6770 26242.1
 08 11 2013  06 37  -21.0255 26007.1 -03505.8 -07.6772 26242.3
 08 11 2013  06 38  -21.0255 26007.2 -03505.8 -07.6773 26242.4
 08 11 2013  06 39  -21.0255 26007.2 -03505.8 -07.6772 26242.4
 08 11 2013  06 40  -21.0254 26007.2 -03505.8 -07.6772 26242.5
 08 11 2013  06 41  -21.0254 26007.3 -03505.8 -07.6772 26242.5
 08 11 2013  06 42  -21.0251 26007.2 -03505.8 -07.6772 26242.5
 08 11 2013  06 43  -21.0248 26007.2 -03505.7 -07.6770 26242.4
 08 11 2013  06 44  -21.0248 26007.1 -03505.7 -07.6770 26242.3
 08 11 2013  06 45  -21.0249 26007.2 -03505.7 -07.6771 26242.4
 08 11 2013  06 46  -21.0250 26007.4 -03505.8 -07.6773 26242.6
 08 11 2013  06 47  -21.0250 26007.5 -03505.9 -07.6773 26242.7
 08 11 2013  06 48  -21.0250 26007.5 -03505.9 -07.6774 26242.7
 08 11 2013  06 49  -21.0250 26007.4 -03505.9 -07.6773 26242.6
 08 11 2013  06 50  -21.0250 26007.4 -03505.9 -07.6774 26242.7
 08 11 2013  06 51  -21.0250 26007.6 -03506.0 -07.6775 26242.8
 08 11 2013  06 52  -21.0250 26007.7 -03506.1 -07.6777 26243.0
 08 11 2013  06 53  -21.0250 26007.8 -03506.1 -07.6777 26243.1
 08 11 2013  06 54  -21.0250 26007.9 -03506.1 -07.6778 26243.1
 08 11 2013  06 55  -21.0249 26007.9 -03506.1 -07.6777 26243.1
 08 11 2013  06 56  -21.0247 26007.7 -03506.0 -07.6776 26243.0
 08 11 2013  06 57  -21.0246 26007.8 -03506.1 -07.6776 26243.0
 08 11 2013  06 58  -21.0245 26008.0 -03506.1 -07.6777 26243.2
 08 11 2013  06 59  -21.0243 26008.1 -03506.2 -07.6779 26243.3
 08 11 2013  07 00  -21.0240 26008.2 -03506.3 -07.6779 26243.5
 08 11 2013  07 01  -21.0237 26008.3 -03506.4 -07.6781 26243.6
 08 11 2013  07 02  -21.0233 26008.3 -03506.3 -07.6781 26243.6
 08 11 2013  07 03  -21.0228 26008.3 -03506.4 -07.6781 26243.6
 08 11 2013  07 04  -21.0223 26008.3 -03506.4 -07.6781 26243.5
 08 11 2013  07 05  -21.0219 26008.2 -03506.4 -07.6782 26243.5
 08 11 2013  07 06  -21.0215 26008.1 -03506.4 -07.6782 26243.4
 08 11 2013  07 07  -21.0214 26008.2 -03506.4 -07.6782 26243.5
 08 11 2013  07 08  -21.0214 26008.1 -03506.4 -07.6783 26243.4
 08 11 2013  07 09  -21.0212 26008.3 -03506.5 -07.6784 26243.6
 08 11 2013  07 10  -21.0209 26008.4 -03506.5 -07.6785 26243.7
 08 11 2013  07 11  -21.0208 26008.4 -03506.6 -07.6786 26243.7
 08 11 2013  07 12  -21.0206 26008.4 -03506.6 -07.6786 26243.7
 08 11 2013  07 13  -21.0202 26008.4 -03506.7 -07.6787 26243.8
 08 11 2013  07 14  -21.0199 26008.3 -03506.6 -07.6787 26243.7
 08 11 2013  07 15  -21.0197 26008.5 -03506.7 -07.6789 26243.8
 08 11 2013  07 16  -21.0194 26008.5 -03506.7 -07.6789 26243.8
 08 11 2013  07 17  -21.0193 26008.6 -03506.8 -07.6790 26243.9
 08 11 2013  07 18  -21.0193 26008.7 -03506.9 -07.6792 26244.0
 08 11 2013  07 19  -21.0192 26008.7 -03506.9 -07.6793 26244.1
 08 11 2013  07 20  -21.0190 26008.6 -03506.9 -07.6793 26244.0
 08 11 2013  07 21  -21.0187 26008.5 -03506.9 -07.6793 26243.9
 08 11 2013  07 22  -21.0186 26008.3 -03506.8 -07.6791 26243.7
 08 11 2013  07 23  -21.0184 26008.1 -03506.7 -07.6790 26243.4
 08 11 2013  07 24  -21.0185 26007.8 -03506.5 -07.6787 26243.1
 08 11 2013  07 25  -21.0188 26007.2 -03506.3 -07.6783 26242.5
 08 11 2013  07 26  -21.0192 26006.7 -03506.1 -07.6780 26242.0
 08 11 2013  07 27  -21.0198 26006.2 -03505.9 -07.6777 26241.5
 08 11 2013  07 28  -21.0207 26005.9 -03505.7 -07.6775 26241.1
 08 11 2013  07 29  -21.0215 26005.6 -03505.6 -07.6772 26240.9
 08 11 2013  07 30  -21.0220 26005.5 -03505.5 -07.6771 26240.7
 08 11 2013  07 31  -21.0225 26005.5 -03505.5 -07.6771 26240.7
 08 11 2013  07 32  -21.0225 26005.3 -03505.4 -07.6769 26240.5
 08 11 2013  07 33  -21.0225 26005.2 -03505.3 -07.6767 26240.4
 08 11 2013  07 34  -21.0222 26005.2 -03505.2 -07.6766 26240.4
 08 11 2013  07 35  -21.0219 26005.1 -03505.2 -07.6765 26240.3
 08 11 2013  07 36  -21.0216 26005.1 -03505.1 -07.6764 26240.3
 08 11 2013  07 37  -21.0210 26005.2 -03505.1 -07.6764 26240.4
 08 11 2013  07 38  -21.0206 26005.2 -03505.1 -07.6763 26240.3
 08 11 2013  07 39  -21.0201 26005.2 -03505.1 -07.6764 26240.3
 08 11 2013  07 40  -21.0197 26005.2 -03505.1 -07.6764 26240.4
 08 11 2013  07 41  -21.0195 26005.1 -03505.1 -07.6764 26240.3
 08 11 2013  07 42  -21.0193 26005.2 -03505.2 -07.6764 26240.4
 08 11 2013  07 43  -21.0189 26005.5 -03505.3 -07.6767 26240.7
 08 11 2013  07 44  -21.0188 26005.4 -03505.3 -07.6768 26240.6
 08 11 2013  07 45  -21.0184 26005.6 -03505.4 -07.6769 26240.8
 08 11 2013  07 46  -21.0180 26005.6 -03505.5 -07.6771 26240.8
 08 11 2013  07 47  -21.0178 26005.5 -03505.5 -07.6772 26240.7
 08 11 2013  07 48  -21.0177 26005.5 -03505.6 -07.6773 26240.7
 08 11 2013  07 49  -21.0172 26005.6 -03505.7 -07.6776 26240.8
 08 11 2013  07 50  -21.0170 26005.7 -03505.9 -07.6778 26240.9
 08 11 2013  07 51  -21.0171 26005.5 -03505.9 -07.6779 26240.8
 08 11 2013  07 52  -21.0172 26005.6 -03506.0 -07.6781 26240.8
 08 11 2013  07 53  -21.0174 26005.6 -03506.1 -07.6784 26240.9
 08 11 2013  07 54  -21.0174 26005.7 -03506.2 -07.6786 26241.0
 08 11 2013  07 55  -21.0174 26005.7 -03506.3 -07.6787 26241.0
 08 11 2013  07 56  -21.0174 26005.8 -03506.4 -07.6789 26241.1
 08 11 2013  07 57  -21.0174 26005.7 -03506.4 -07.6791 26241.1
 08 11 2013  07 58  -21.0174 26005.8 -03506.5 -07.6792 26241.1
 08 11 2013  07 59  -21.0174 26005.9 -03506.6 -07.6794 26241.2
 08 11 2013  08 00  -21.0175 26005.9 -03506.7 -07.6796 26241.3
 08 11 2013  08 01  -21.0175 26005.9 -03506.8 -07.6797 26241.3
 08 11 2013  08 02  -21.0174 26005.9 -03506.8 -07.6798 26241.3
 08 11 2013  08 03  -21.0172 26005.8 -03506.8 -07.6798 26241.2
 08 11 2013  08 04  -21.0172 26005.8 -03506.8 -07.6799 26241.2
 08 11 2013  08 05  -21.0172 26005.7 -03506.9 -07.6800 26241.1
 08 11 2013  08 06  -21.0172 26005.6 -03506.9 -07.6800 26241.0
 08 11 2013  08 07  -21.0174 26005.6 -03506.9 -07.6801 26241.0
 08 11 2013  08 08  -21.0175 26005.6 -03507.0 -07.6803 26241.0
 08 11 2013  08 09  -21.0175 26005.6 -03507.0 -07.6804 26241.0
 08 11 2013  08 10  -21.0178 26005.5 -03507.1 -07.6805 26240.9
 08 11 2013  08 11  -21.0180 26005.5 -03507.1 -07.6806 26240.9
 08 11 2013  08 12  -21.0182 26005.4 -03507.1 -07.6806 26240.8
 08 11 2013  08 13  -21.0182 26005.4 -03507.1 -07.6806 26240.8
 08 11 2013  08 14  -21.0184 26005.4 -03507.1 -07.6806 26240.8
 08 11 2013  08 15  -21.0184 26005.3 -03507.1 -07.6806 26240.8
 08 11 2013  08 16  -21.0184 26005.3 -03507.1 -07.6805 26240.8
 08 11 2013  08 17  -21.0180 26005.3 -03507.1 -07.6805 26240.7
 08 11 2013  08 18  -21.0179 26005.3 -03507.0 -07.6804 26240.7
 08 11 2013  08 19  -21.0176 26005.3 -03507.0 -07.6804 26240.7
 08 11 2013  08 20  -21.0174 26005.2 -03506.9 -07.6803 26240.6
 08 11 2013  08 21  -21.0170 26005.2 -03506.9 -07.6802 26240.6
 08 11 2013  08 22  -21.0168 26005.2 -03507.0 -07.6803 26240.6
 08 11 2013  08 23  -21.0166 26005.3 -03507.0 -07.6803 26240.7
 08 11 2013  08 24  -21.0162 26005.2 -03506.9 -07.6803 26240.6
 08 11 2013  08 25  -21.0158 26005.1 -03506.9 -07.6802 26240.5
 08 11 2013  08 26  -21.0152 26005.0 -03506.9 -07.6803 26240.4
 08 11 2013  08 27  -21.0146 26004.9 -03506.9 -07.6804 26240.3
 08 11 2013  08 28  -21.0141 26004.8 -03507.0 -07.6805 26240.3
 08 11 2013  08 29  -21.0136 26004.8 -03507.1 -07.6807 26240.2
 08 11 2013  08 30  -21.0130 26004.7 -03507.2 -07.6809 26240.2
 08 11 2013  08 31  -21.0125 26004.7 -03507.3 -07.6812 26240.1
 08 11 2013  08 32  -21.0121 26004.6 -03507.5 -07.6816 26240.1
 08 11 2013  08 33  -21.0119 26004.6 -03507.6 -07.6819 26240.1
 08 11 2013  08 34  -21.0117 26004.6 -03507.8 -07.6823 26240.1
 08 11 2013  08 35  -21.0116 26004.6 -03507.9 -07.6826 26240.1
 08 11 2013  08 36  -21.0115 26004.6 -03508.1 -07.6830 26240.2
 08 11 2013  08 37  -21.0115 26004.6 -03508.2 -07.6833 26240.1
 08 11 2013  08 38  -21.0113 26004.5 -03508.3 -07.6834 26240.1
 08 11 2013  08 39  -21.0114 26004.5 -03508.6 -07.6841 26240.1
 08 11 2013  08 40  -21.0114 26004.5 -03508.8 -07.6845 26240.2
 08 11 2013  08 41  -21.0115 26004.5 -03509.0 -07.6850 26240.2
 08 11 2013  08 42  -21.0116 26004.5 -03509.2 -07.6854 26240.2
 08 11 2013  08 43  -21.0117 26004.5 -03509.3 -07.6857 26240.2
 08 11 2013  08 44  -21.0119 26004.4 -03509.5 -07.6860 26240.2
 08 11 2013  08 45  -21.0121 26004.4 -03509.6 -07.6864 26240.2
 08 11 2013  08 46  -21.0124 26004.4 -03509.8 -07.6868 26240.2
 08 11 2013  08 47  -21.0124 26004.4 -03510.0 -07.6871 26240.2
 08 11 2013  08 48  -21.0127 26004.4 -03510.1 -07.6874 26240.2
 08 11 2013  08 49  -21.0128 26004.5 -03510.3 -07.6878 26240.4
 08 11 2013  08 50  -21.0127 26004.7 -03510.6 -07.6884 26240.6
 08 11 2013  08 51  -21.0128 26004.9 -03510.9 -07.6889 26240.8
 08 11 2013  08 52  -21.0127 26005.0 -03511.1 -07.6893 26241.0
 08 11 2013  08 53  -21.0129 26005.4 -03511.3 -07.6898 26241.4
 08 11 2013  08 54  -21.0133 26005.8 -03511.7 -07.6904 26241.8
 08 11 2013  08 55  -21.0140 26006.1 -03511.9 -07.6908 26242.2
 08 11 2013  08 56  -21.0146 26006.5 -03512.1 -07.6910 26242.6
 08 11 2013  08 57  -21.0154 26006.9 -03512.3 -07.6914 26243.0
 08 11 2013  08 58  -21.0162 26007.1 -03512.4 -07.6916 26243.2
 08 11 2013  08 59  -21.0167 26007.1 -03512.5 -07.6917 26243.3
 08 11 2013  09 00  -21.0172 26007.2 -03512.5 -07.6917 26243.3
 08 11 2013  09 01  -21.0175 26007.3 -03512.6 -07.6918 26243.4
 08 11 2013  09 02  -21.0176 26007.3 -03512.6 -07.6920 26243.4
 08 11 2013  09 03  -21.0173 26007.2 -03512.7 -07.6921 26243.4
 08 11 2013  09 04  -21.0179 26007.2 -03512.7 -07.6922 26243.4
 08 11 2013  09 05  -21.0193 26007.3 -03512.8 -07.6923 26243.5
 08 11 2013  09 06  -21.0206 26007.5 -03512.9 -07.6924 26243.7
 08 11 2013  09 07  -21.0216 26007.4 -03512.8 -07.6924 26243.5
 08 11 2013  09 08  -21.0218 26006.9 -03512.6 -07.6921 26243.1
 08 11 2013  09 09  -21.0219 26006.5 -03512.5 -07.6919 26242.6
 08 11 2013  09 10  -21.0221 26006.1 -03512.4 -07.6918 26242.2
 08 11 2013  09 11  -21.0226 26006.1 -03512.5 -07.6920 26242.2
 08 11 2013  09 12  -21.0233 26006.1 -03512.5 -07.6921 26242.2
 08 11 2013  09 13  -21.0240 26006.2 -03512.6 -07.6922 26242.4
 08 11 2013  09 14  -21.0246 26006.4 -03512.5 -07.6921 26242.5
 08 11 2013  09 15  -21.0253 26006.6 -03512.9 -07.6927 26242.8
 08 11 2013  09 16  -21.0257 26006.9 -03513.0 -07.6930 26243.1
 08 11 2013  09 17  -21.0264 26007.2 -03513.2 -07.6932 26243.4
 08 11 2013  09 18  -21.0267 26007.6 -03513.3 -07.6934 26243.8
 08 11 2013  09 19  -21.0276 26008.0 -03513.5 -07.6936 26244.2
 08 11 2013  09 20  -21.0285 26008.4 -03513.6 -07.6939 26244.7
 08 11 2013  09 21  -21.0292 26008.9 -03513.8 -07.6940 26245.2
 08 11 2013  09 22  -21.0299 26009.2 -03513.8 -07.6940 26245.5
 08 11 2013  09 23  -21.0306 26009.3 -03513.8 -07.6939 26245.6
 08 11 2013  09 24  -21.0311 26009.4 -03513.8 -07.6939 26245.7
 08 11 2013  09 25  -21.0318 26009.7 -03513.8 -07.6939 26245.9
 08 11 2013  09 26  -21.0324 26009.7 -03513.8 -07.6938 26246.0
 08 11 2013  09 27  -21.0330 26009.8 -03513.7 -07.6937 26246.0
 08 11 2013  09 28  -21.0335 26009.6 -03513.6 -07.6934 26245.9
 08 11 2013  09 29  -21.0335 26009.0 -03513.4 -07.6931 26245.2
 08 11 2013  09 30  -21.0331 26007.7 -03513.1 -07.6928 26243.9
 08 11 2013  09 31  -21.0333 26006.8 -03513.2 -07.6933 26243.0
 08 11 2013  09 32  -21.0335 26007.2 -03513.9 -07.6948 26243.5
 08 11 2013  09 33  -21.0343 26008.3 -03514.7 -07.6962 26244.7
 08 11 2013  09 34  -21.0345 26009.4 -03515.3 -07.6971 26245.9
 08 11 2013  09 35  -21.0354 26010.7 -03515.6 -07.6975 26247.2
 08 11 2013  09 36  -21.0364 26012.0 -03515.9 -07.6977 26248.5
 08 11 2013  09 37  -21.0376 26013.1 -03516.1 -07.6978 26249.6
 08 11 2013  09 38  -21.0387 26013.8 -03516.0 -07.6974 26250.3
 08 11 2013  09 39  -21.0397 26014.2 -03515.8 -07.6969 26250.7
 08 11 2013  09 40  -21.0404 26014.5 -03515.7 -07.6965 26251.0
 08 11 2013  09 41  -21.0409 26014.7 -03515.5 -07.6960 26251.1
 08 11 2013  09 42  -21.0414 26014.6 -03515.2 -07.6955 26251.1
 08 11 2013  09 43  -21.0418 26014.6 -03515.1 -07.6951 26251.0
 08 11 2013  09 44  -21.0425 26014.7 -03515.0 -07.6950 26251.1
 08 11 2013  09 45  -21.0432 26014.7 -03514.9 -07.6948 26251.1
 08 11 2013  09 46  -21.0432 26015.0 -03515.0 -07.6948 26251.4
 08 11 2013  09 47  -21.0432 26014.9 -03514.9 -07.6946 26251.3
 08 11 2013  09 48  -21.0446 26015.1 -03514.8 -07.6945 26251.4
 08 11 2013  09 49  -21.0453 26015.6 -03515.0 -07.6947 26252.0
 08 11 2013  09 50  -21.0465 26015.8 -03515.0 -07.6946 26252.2
 08 11 2013  09 51  -21.0468 26015.9 -03515.0 -07.6945 26252.3
 08 11 2013  09 52  -21.0472 26015.9 -03514.8 -07.6942 26252.2
 08 11 2013  09 53  -21.0479 26015.8 -03514.7 -07.6939 26252.1
 08 11 2013  09 54  -21.0485 26015.8 -03514.6 -07.6937 26252.1
 08 11 2013  09 55  -21.0484 26015.7 -03514.5 -07.6936 26252.1
 08 11 2013  09 56  -21.0486 26015.5 -03514.5 -07.6936 26251.8
 08 11 2013  09 57  -21.0485 26015.3 -03514.5 -07.6936 26251.6
 08 11 2013  09 58  -21.0487 26015.5 -03514.6 -07.6939 26251.8
 08 11 2013  09 59  -21.0493 26016.0 -03514.9 -07.6943 26252.4
 08 11 2013  10 00  -21.0500 26016.7 -03515.1 -07.6947 26253.1
 08 11 2013  10 01  -21.0509 26017.2 -03515.3 -07.6949 26253.6
 08 11 2013  10 02  -21.0516 26017.4 -03515.3 -07.6948 26253.8
 08 11 2013  10 03  -21.0516 26017.3 -03515.2 -07.6947 26253.7
 08 11 2013  10 04  -21.0518 26016.8 -03514.9 -07.6942 26253.2
 08 11 2013  10 05  -21.0528 26016.7 -03514.9 -07.6941 26253.0
 08 11 2013  10 06  -21.0545 26016.8 -03514.9 -07.6941 26253.2
 08 11 2013  10 07  -21.0563 26016.6 -03514.8 -07.6939 26253.0
 08 11 2013  10 08  -21.0569 26016.1 -03514.5 -07.6934 26252.4
 08 11 2013  10 09  -21.0575 26015.2 -03514.2 -07.6930 26251.5
 08 11 2013  10 10  -21.0574 26014.3 -03513.9 -07.6926 26250.5
 08 11 2013  10 11  -21.0577 26013.8 -03513.8 -07.6927 26250.1
 08 11 2013  10 12  -21.0580 26013.6 -03514.0 -07.6930 26249.9
 08 11 2013  10 13  -21.0582 26013.6 -03514.1 -07.6933 26249.9
 08 11 2013  10 14  -21.0583 26013.6 -03514.2 -07.6936 26249.9
 08 11 2013  10 15  -21.0590 26014.0 -03514.5 -07.6940 26250.4
 08 11 2013  10 16  -21.0597 26014.6 -03514.8 -07.6945 26251.0
 08 11 2013  10 17  -21.0601 26015.2 -03515.0 -07.6949 26251.6
 08 11 2013  10 18  -21.0603 26015.6 -03515.1 -07.6949 26252.0
 08 11 2013  10 19  -21.0608 26016.0 -03515.2 -07.6950 26252.4
 08 11 2013  10 20  -21.0613 26016.6 -03515.3 -07.6951 26253.0
 08 11 2013  10 21  -21.0619 26017.1 -03515.4 -07.6951 26253.5
 08 11 2013  10 22  -21.0628 26017.8 -03515.5 -07.6952 26254.3
 08 11 2013  10 23  -21.0632 26018.4 -03515.6 -07.6952 26254.8
 08 11 2013  10 24  -21.0633 26018.6 -03515.5 -07.6949 26255.1
 08 11 2013  10 25  -21.0638 26019.2 -03515.5 -07.6947 26255.6
 08 11 2013  10 26  -21.0648 26019.8 -03515.5 -07.6946 26256.2
 08 11 2013  10 27  -21.0659 26020.4 -03515.5 -07.6944 26256.8
 08 11 2013  10 28  -21.0669 26020.8 -03515.4 -07.6941 26257.2
 08 11 2013  10 29  -21.0671 26021.0 -03515.2 -07.6935 26257.3
 08 11 2013  10 30  -21.0675 26021.0 -03514.9 -07.6930 26257.3
 08 11 2013  10 31  -21.0678 26020.9 -03514.7 -07.6924 26257.2
 08 11 2013  10 32  -21.0687 26021.0 -03514.5 -07.6919 26257.2
 08 11 2013  10 33  -21.0693 26021.0 -03514.2 -07.6915 26257.2
 08 11 2013  10 34  -21.0698 26020.9 -03514.1 -07.6911 26257.1
 08 11 2013  10 35  -21.0699 26020.9 -03513.9 -07.6909 26257.1
 08 11 2013  10 36  -21.0698 26020.8 -03513.8 -07.6905 26257.0
 08 11 2013  10 37  -21.0698 26021.0 -03513.7 -07.6902 26257.1
 08 11 2013  10 38  -21.0698 26021.2 -03513.6 -07.6901 26257.3
 08 11 2013  10 39  -21.0701 26021.5 -03513.6 -07.6900 26257.7
 08 11 2013  10 40  -21.0702 26022.0 -03513.6 -07.6898 26258.1
 08 11 2013  10 41  -21.0702 26022.3 -03513.6 -07.6896 26258.4
 08 11 2013  10 42  -21.0702 26022.7 -03513.5 -07.6894 26258.8
 08 11 2013  10 43  -21.0704 26023.1 -03513.5 -07.6893 26259.2
 08 11 2013  10 44  -21.0707 26023.5 -03513.5 -07.6891 26259.6
 08 11 2013  10 45  -21.0710 26023.8 -03513.4 -07.6888 26259.9
 08 11 2013  10 46  -21.0711 26024.1 -03513.3 -07.6885 26260.1
 08 11 2013  10 47  -21.0710 26024.3 -03513.2 -07.6882 26260.4
 08 11 2013  10 48  -21.0710 26024.5 -03513.1 -07.6880 26260.6
 08 11 2013  10 49  -21.0710 26024.7 -03512.9 -07.6876 26260.8
 08 11 2013  10 50  -21.0708 26024.9 -03512.9 -07.6874 26261.0
 08 11 2013  10 51  -21.0708 26025.3 -03512.8 -07.6871 26261.3
 08 11 2013  10 52  -21.0708 26025.7 -03512.8 -07.6869 26261.7
 08 11 2013  10 53  -21.0709 26026.1 -03512.7 -07.6867 26262.1
 08 11 2013  10 54  -21.0711 26026.6 -03512.7 -07.6866 26262.6
 08 11 2013  10 55  -21.0713 26027.1 -03512.7 -07.6863 26263.0
 08 11 2013  10 56  -21.0714 26027.7 -03512.7 -07.6862 26263.7
 08 11 2013  10 57  -21.0709 26028.1 -03512.6 -07.6859 26264.1
 08 11 2013  10 58  -21.0704 26028.3 -03512.5 -07.6855 26264.3
 08 11 2013  10 59  -21.0700 26028.8 -03512.5 -07.6854 26264.7
 08 11 2013  11 00  -21.0694 26029.3 -03512.6 -07.6854 26265.3
 08 11 2013  11 01  -21.0690 26029.9 -03512.6 -07.6853 26265.8
 08 11 2013  11 02  -21.0687 26030.8 -03512.7 -07.6853 26266.7
 08 11 2013  11 03  -21.0687 26031.6 -03512.8 -07.6852 26267.6
 08 11 2013  11 04  -21.0686 26032.4 -03512.8 -07.6849 26268.3
 08 11 2013  11 05  -21.0688 26033.3 -03512.7 -07.6846 26269.2
 08 11 2013  11 06  -21.0691 26034.0 -03512.7 -07.6842 26269.9
 08 11 2013  11 07  -21.0692 26034.6 -03512.5 -07.6837 26270.5
 08 11 2013  11 08  -21.0694 26035.1 -03512.3 -07.6831 26270.9
 08 11 2013  11 09  -21.0695 26035.4 -03512.0 -07.6825 26271.2
 08 11 2013  11 10  -21.0696 26035.7 -03511.8 -07.6819 26271.5
 08 11 2013  11 11  -21.0698 26035.9 -03511.5 -07.6813 26271.6
 08 11 2013  11 12  -21.0701 26036.1 -03511.3 -07.6808 26271.8
 08 11 2013  11 13  -21.0703 26036.3 -03511.2 -07.6803 26272.0
 08 11 2013  11 14  -21.0705 26036.4 -03510.9 -07.6798 26272.1
 08 11 2013  11 15  -21.0707 26036.4 -03510.7 -07.6793 26272.1
 08 11 2013  11 16  -21.0707 26036.6 -03510.5 -07.6789 26272.2
 08 11 2013  11 17  -21.0704 26036.8 -03510.4 -07.6787 26272.4
 08 11 2013  11 18  -21.0702 26036.9 -03510.3 -07.6782 26272.4
 08 11 2013  11 19  -21.0699 26037.0 -03510.1 -07.6779 26272.5
 08 11 2013  11 20  -21.0701 26037.1 -03510.0 -07.6777 26272.6
 08 11 2013  11 21  -21.0696 26037.5 -03509.9 -07.6773 26273.0
 08 11 2013  11 22  -21.0715 26037.9 -03509.7 -07.6766 26273.4
 08 11 2013  11 23  -21.0702 26037.7 -03509.8 -07.6770 26273.2
 08 11 2013  11 24  -21.0691 26038.1 -03509.8 -07.6769 26273.6
 08 11 2013  11 25  -21.0695 26038.4 -03509.8 -07.6768 26273.9
 08 11 2013  11 26  -21.0695 26038.7 -03509.7 -07.6765 26274.1
 08 11 2013  11 27  -21.0694 26039.1 -03509.7 -07.6765 26274.5
 08 11 2013  11 28  -21.0693 26039.5 -03509.7 -07.6763 26274.9
 08 11 2013  11 29  -21.0691 26039.9 -03509.7 -07.6762 26275.4
 08 11 2013  11 30  -21.0690 26040.4 -03509.7 -07.6760 26275.8
 08 11 2013  11 31  -21.0689 26040.9 -03509.7 -07.6759 26276.4
 08 11 2013  11 32  -21.0690 26041.1 -03509.5 -07.6754 26276.5
 08 11 2013  11 33  -21.0691 26041.3 -03509.4 -07.6751 26276.7
 08 11 2013  11 34  -21.0691 26041.5 -03509.3 -07.6749 26276.8
 08 11 2013  11 35  -21.0689 26041.7 -03509.3 -07.6747 26277.1
 08 11 2013  11 36  -21.0686 26042.0 -03509.2 -07.6746 26277.4
 08 11 2013  11 37  -21.0683 26042.5 -03509.3 -07.6745 26277.9
 08 11 2013  11 38  -21.0679 26043.1 -03509.4 -07.6745 26278.5
 08 11 2013  11 39  -21.0676 26043.6 -03509.4 -07.6744 26279.0
 08 11 2013  11 40  -21.0676 26044.1 -03509.4 -07.6742 26279.4
 08 11 2013  11 41  -21.0677 26044.3 -03509.2 -07.6738 26279.6
 08 11 2013  11 42  -21.0680 26044.4 -03509.1 -07.6735 26279.7
 08 11 2013  11 43  -21.0680 26044.5 -03509.0 -07.6732 26279.8
 08 11 2013  11 44  -21.0678 26044.7 -03508.9 -07.6730 26280.0
 08 11 2013  11 45  -21.0677 26044.9 -03508.8 -07.6728 26280.2
 08 11 2013  11 46  -21.0677 26045.0 -03508.7 -07.6725 26280.3
 08 11 2013  11 47  -21.0679 26045.3 -03508.7 -07.6725 26280.6
 08 11 2013  11 48  -21.0679 26045.8 -03508.8 -07.6726 26281.0
 08 11 2013  11 49  -21.0677 26046.4 -03508.9 -07.6726 26281.7
 08 11 2013  11 50  -21.0674 26047.1 -03509.1 -07.6727 26282.4
 08 11 2013  11 51  -21.0672 26047.9 -03509.2 -07.6727 26283.2
 08 11 2013  11 52  -21.0672 26048.6 -03509.2 -07.6726 26283.9
 08 11 2013  11 53  -21.0674 26049.2 -03509.2 -07.6724 26284.5
 08 11 2013  11 54  -21.0679 26049.5 -03509.1 -07.6720 26284.8
 08 11 2013  11 55  -21.0684 26049.5 -03508.9 -07.6716 26284.8
 08 11 2013  11 56  -21.0686 26049.7 -03508.8 -07.6714 26284.9
 08 11 2013  11 57  -21.0684 26049.9 -03508.8 -07.6712 26285.2
 08 11 2013  11 58  -21.0680 26050.2 -03508.7 -07.6710 26285.5
 08 11 2013  11 59  -21.0678 26050.6 -03508.7 -07.6709 26285.8
 08 11 2013  12 00  -21.0678 26050.9 -03508.6 -07.6707 26286.1
 08 11 2013  12 01  -21.0679 26051.2 -03508.7 -07.6706 26286.5
 08 11 2013  12 02  -21.0678 26051.8 -03508.8 -07.6706 26287.0
 08 11 2013  12 03  -21.0675 26052.5 -03508.9 -07.6706 26287.7
 08 11 2013  12 04  -21.0672 26053.3 -03509.0 -07.6707 26288.5
 08 11 2013  12 05  -21.0672 26054.0 -03509.0 -07.6705 26289.2
 08 11 2013  12 06  -21.0674 26054.8 -03509.1 -07.6704 26290.0
 08 11 2013  12 07  -21.0677 26055.4 -03509.0 -07.6702 26290.6
 08 11 2013  12 08  -21.0682 26056.0 -03508.9 -07.6698 26291.2
 08 11 2013  12 09  -21.0687 26056.1 -03508.7 -07.6693 26291.3
 08 11 2013  12 10  -21.0694 26056.1 -03508.4 -07.6687 26291.2
 08 11 2013  12 11  -21.0698 26055.8 -03508.1 -07.6680 26290.9
 08 11 2013  12 12  -21.0701 26055.6 -03507.8 -07.6675 26290.7
 08 11 2013  12 13  -21.0700 26055.6 -03507.7 -07.6673 26290.7
 08 11 2013  12 14  -21.0698 26056.0 -03507.7 -07.6672 26291.0
 08 11 2013  12 15  -21.0695 26056.3 -03507.7 -07.6671 26291.4
 08 11 2013  12 16  -21.0694 26056.9 -03507.7 -07.6670 26291.9
 08 11 2013  12 17  -21.0692 26057.6 -03507.8 -07.6670 26292.6
 08 11 2013  12 18  -21.0691 26058.2 -03507.9 -07.6669 26293.3
 08 11 2013  12 19  -21.0690 26058.6 -03507.7 -07.6664 26293.6
 08 11 2013  12 20  -21.0692 26058.7 -03507.5 -07.6660 26293.7
 08 11 2013  12 21  -21.0696 26059.0 -03507.4 -07.6657 26294.0
 08 11 2013  12 22  -21.0698 26059.1 -03507.3 -07.6653 26294.1
 08 11 2013  12 23  -21.0699 26059.4 -03507.2 -07.6650 26294.3
 08 11 2013  12 24  -21.0700 26059.6 -03507.1 -07.6648 26294.5
 08 11 2013  12 25  -21.0699 26059.9 -03507.0 -07.6645 26294.8
 08 11 2013  12 26  -21.0698 26060.2 -03506.9 -07.6643 26295.1
 08 11 2013  12 27  -21.0697 26060.8 -03507.0 -07.6642 26295.7
 08 11 2013  12 28  -21.0694 26061.5 -03507.1 -07.6642 26296.4
 08 11 2013  12 29  -21.0691 26062.1 -03507.1 -07.6641 26297.0
 08 11 2013  12 30  -21.0689 26062.8 -03507.2 -07.6640 26297.7
 08 11 2013  12 31  -21.0689 26063.4 -03507.1 -07.6637 26298.3
 08 11 2013  12 32  -21.0691 26064.0 -03507.1 -07.6635 26298.9
 08 11 2013  12 33  -21.0694 26064.5 -03507.0 -07.6632 26299.4
 08 11 2013  12 34  -21.0697 26065.1 -03507.0 -07.6629 26300.0
 08 11 2013  12 35  -21.0700 26065.6 -03506.8 -07.6625 26300.5
 08 11 2013  12 36  -21.0703 26066.0 -03506.7 -07.6622 26300.8
 08 11 2013  12 37  -21.0705 26066.4 -03506.6 -07.6618 26301.2
 08 11 2013  12 38  -21.0705 26066.8 -03506.5 -07.6614 26301.6
 08 11 2013  12 39  -21.0705 26067.3 -03506.4 -07.6611 26302.1
 08 11 2013  12 40  -21.0705 26067.7 -03506.3 -07.6608 26302.5
 08 11 2013  12 41  -21.0707 26068.0 -03506.2 -07.6603 26302.7
 08 11 2013  12 42  -21.0709 26068.2 -03506.0 -07.6599 26302.9
 08 11 2013  12 43  -21.0712 26068.5 -03505.9 -07.6597 26303.2
 08 11 2013  12 44  -21.0714 26068.9 -03505.9 -07.6594 26303.6
 08 11 2013  12 45  -21.0716 26069.2 -03505.8 -07.6592 26303.9
 08 11 2013  12 46  -21.0717 26069.6 -03505.7 -07.6589 26304.3
 08 11 2013  12 47  -21.0720 26070.0 -03505.6 -07.6586 26304.6
 08 11 2013  12 48  -21.0725 26070.3 -03505.6 -07.6584 26304.9
 08 11 2013  12 49  -21.0728 26070.8 -03505.6 -07.6582 26305.4
 08 11 2013  12 50  -21.0732 26071.3 -03505.6 -07.6581 26305.9
 08 11 2013  12 51  -21.0736 26071.7 -03505.6 -07.6579 26306.4
 08 11 2013  12 52  -21.0738 26072.1 -03505.5 -07.6577 26306.7
 08 11 2013  12 53  -21.0741 26072.4 -03505.4 -07.6573 26307.0
 08 11 2013  12 54  -21.0744 26072.7 -03505.2 -07.6569 26307.2
 08 11 2013  12 55  -21.0748 26072.8 -03505.1 -07.6566 26307.3
 08 11 2013  12 56  -21.0752 26073.3 -03505.1 -07.6564 26307.8
 08 11 2013  12 57  -21.0757 26073.6 -03505.0 -07.6561 26308.1
 08 11 2013  12 58  -21.0761 26074.0 -03504.9 -07.6559 26308.5
 08 11 2013  12 59  -21.0767 26074.2 -03504.8 -07.6556 26308.7
 08 11 2013  13 00  -21.0771 26074.5 -03504.7 -07.6554 26309.0
 08 11 2013  13 01  -21.0772 26075.2 -03504.8 -07.6553 26309.6
 08 11 2013  13 02  -21.0773 26075.7 -03504.8 -07.6551 26310.2
 08 11 2013  13 03  -21.0774 26076.3 -03504.8 -07.6549 26310.7
 08 11 2013  13 04  -21.0776 26076.7 -03504.7 -07.6546 26311.1
 08 11 2013  13 05  -21.0779 26077.2 -03504.7 -07.6545 26311.7
 08 11 2013  13 06  -21.0782 26077.8 -03504.7 -07.6543 26312.2
 08 11 2013  13 07  -21.0784 26078.2 -03504.6 -07.6540 26312.7
 08 11 2013  13 08  -21.0786 26078.7 -03504.5 -07.6537 26313.1
 08 11 2013  13 09  -21.0788 26079.3 -03504.6 -07.6537 26313.8
 08 11 2013  13 10  -21.0789 26080.1 -03504.7 -07.6537 26314.6
 08 11 2013  13 11  -21.0790 26081.0 -03504.8 -07.6536 26315.4
 08 11 2013  13 12  -21.0791 26081.3 -03504.6 -07.6531 26315.7
 08 11 2013  13 13  -21.0793 26081.7 -03504.5 -07.6527 26316.1
 08 11 2013  13 14  -21.0797 26082.2 -03504.5 -07.6526 26316.6
 08 11 2013  13 15  -21.0800 26082.8 -03504.5 -07.6525 26317.2
 08 11 2013  13 16  -21.0800 26083.2 -03504.5 -07.6522 26317.6
 08 11 2013  13 17  -21.0802 26083.5 -03504.3 -07.6518 26317.9
 08 11 2013  13 18  -21.0803 26083.9 -03504.3 -07.6517 26318.2
 08 11 2013  13 19  -21.0804 26084.6 -03504.4 -07.6517 26319.0
 08 11 2013  13 20  -21.0809 26085.3 -03504.5 -07.6517 26319.7
 08 11 2013  13 21  -21.0814 26084.4 -03503.8 -07.6505 26318.7
 08 11 2013  13 22  -21.0819 26083.7 -03503.3 -07.6497 26317.9
 08 11 2013  13 23  -21.0822 26083.9 -03503.4 -07.6497 26318.1
 08 11 2013  13 24  -21.0822 26084.2 -03503.5 -07.6498 26318.5
 08 11 2013  13 25  -21.0824 26084.2 -03503.4 -07.6496 26318.5
 08 11 2013  13 26  -21.0824 26083.9 -03503.2 -07.6492 26318.1
 08 11 2013  13 27  -21.0825 26084.3 -03503.3 -07.6495 26318.5
 08 11 2013  13 28  -21.0826 26084.9 -03503.5 -07.6498 26319.1
 08 11 2013  13 29  -21.0827 26085.0 -03503.5 -07.6497 26319.2
 08 11 2013  13 30  -21.0830 26085.3 -03503.6 -07.6497 26319.5
 08 11 2013  13 31  -21.0833 26085.7 -03503.6 -07.6497 26320.0
 08 11 2013  13 32  -21.0839 26086.3 -03503.7 -07.6498 26320.5
 08 11 2013  13 33  -21.0843 26085.9 -03503.3 -07.6490 26320.1
 08 11 2013  13 34  -21.0847 26085.6 -03503.0 -07.6484 26319.7
 08 11 2013  13 35  -21.0852 26085.5 -03502.9 -07.6481 26319.7
 08 11 2013  13 36  -21.0857 26085.5 -03502.8 -07.6480 26319.7
 08 11 2013  13 37  -21.0860 26085.5 -03502.7 -07.6478 26319.7
 08 11 2013  13 38  -21.0863 26086.0 -03502.9 -07.6480 26320.1
 08 11 2013  13 39  -21.0864 26086.5 -03503.0 -07.6481 26320.7
 08 11 2013  13 40  -21.0868 26086.8 -03503.0 -07.6480 26321.0
 08 11 2013  13 41  -21.0870 26087.1 -03503.0 -07.6479 26321.3
 08 11 2013  13 42  -21.0872 26087.4 -03502.9 -07.6477 26321.6
 08 11 2013  13 43  -21.0874 26087.8 -03502.9 -07.6476 26321.9
 08 11 2013  13 44  -21.0876 26087.8 -03502.7 -07.6472 26321.9
 08 11 2013  13 45  -21.0877 26088.2 -03502.7 -07.6470 26322.3
 08 11 2013  13 46  -21.0880 26088.5 -03502.7 -07.6468 26322.6
 08 11 2013  13 47  -21.0882 26089.1 -03502.7 -07.6468 26323.1
 08 11 2013  13 48  -21.0884 26089.1 -03502.5 -07.6463 26323.2
 08 11 2013  13 49  -21.0885 26089.0 -03502.3 -07.6458 26323.1
 08 11 2013  13 50  -21.0887 26089.0 -03502.1 -07.6454 26323.0
 08 11 2013  13 51  -21.0888 26088.8 -03501.9 -07.6450 26322.8
 08 11 2013  13 52  -21.0888 26088.8 -03501.7 -07.6447 26322.7
 08 11 2013  13 53  -21.0886 26088.8 -03501.6 -07.6445 26322.8
 08 11 2013  13 54  -21.0885 26088.8 -03501.5 -07.6442 26322.7
 08 11 2013  13 55  -21.0882 26088.9 -03501.4 -07.6440 26322.8
 08 11 2013  13 56  -21.0881 26089.1 -03501.5 -07.6441 26323.0
 08 11 2013  13 57  -21.0880 26089.2 -03501.4 -07.6439 26323.1
 08 11 2013  13 58  -21.0878 26089.4 -03501.3 -07.6437 26323.3
 08 11 2013  13 59  -21.0876 26089.5 -03501.2 -07.6433 26323.4
 08 11 2013  14 00  -21.0873 26089.7 -03501.1 -07.6430 26323.5
 08 11 2013  14 01  -21.0872 26089.8 -03500.9 -07.6427 26323.6
 08 11 2013  14 02  -21.0868 26089.8 -03500.8 -07.6424 26323.7
 08 11 2013  14 03  -21.0863 26089.7 -03500.6 -07.6420 26323.5
 08 11 2013  14 04  -21.0861 26090.9 -03501.0 -07.6425 26324.7
 08 11 2013  14 05  -21.0856 26091.6 -03501.1 -07.6425 26325.4
 08 11 2013  14 06  -21.0848 26092.4 -03501.0 -07.6422 26326.2
 08 11 2013  14 07  -21.0843 26092.8 -03500.9 -07.6418 26326.6
 08 11 2013  14 08  -21.0841 26093.4 -03500.9 -07.6415 26327.2
 08 11 2013  14 09  -21.0839 26093.9 -03500.7 -07.6410 26327.7
 08 11 2013  14 10  -21.0838 26094.0 -03500.4 -07.6403 26327.8
 08 11 2013  14 11  -21.0836 26094.1 -03500.0 -07.6395 26327.8
 08 11 2013  14 12  -21.0833 26094.0 -03499.7 -07.6387 26327.6
 08 11 2013  14 13  -21.0830 26093.8 -03499.3 -07.6381 26327.4
 08 11 2013  14 14  -21.0826 26093.7 -03499.0 -07.6374 26327.3
 08 11 2013  14 15  -21.0820 26093.7 -03498.8 -07.6369 26327.3
 08 11 2013  14 16  -21.0815 26094.1 -03498.7 -07.6366 26327.6
 08 11 2013  14 17  -21.0812 26094.2 -03498.4 -07.6361 26327.7
 08 11 2013  14 18  -21.0807 26094.1 -03498.1 -07.6354 26327.5
 08 11 2013  14 19  -21.0803 26094.0 -03497.8 -07.6347 26327.3
 08 11 2013  14 20  -21.0797 26093.8 -03497.5 -07.6341 26327.1
 08 11 2013  14 21  -21.0792 26093.3 -03497.0 -07.6332 26326.5
 08 11 2013  14 22  -21.0790 26093.1 -03496.8 -07.6328 26326.3
 08 11 2013  14 23  -21.0788 26092.9 -03496.6 -07.6324 26326.2
 08 11 2013  14 24  -21.0784 26093.0 -03496.4 -07.6321 26326.2
 08 11 2013  14 25  -21.0779 26093.2 -03496.3 -07.6318 26326.4
 08 11 2013  14 26  -21.0775 26093.8 -03496.4 -07.6318 26327.0
 08 11 2013  14 27  -21.0776 26094.6 -03496.5 -07.6318 26327.8
 08 11 2013  14 28  -21.0775 26094.5 -03496.1 -07.6310 26327.7
 08 11 2013  14 29  -21.0774 26094.4 -03495.7 -07.6302 26327.5
 08 11 2013  14 30  -21.0773 26094.5 -03495.5 -07.6297 26327.6
 08 11 2013  14 31  -21.0775 26094.7 -03495.4 -07.6293 26327.8
 08 11 2013  14 32  -21.0773 26094.9 -03495.2 -07.6289 26328.0
 08 11 2013  14 33  -21.0772 26095.3 -03495.1 -07.6286 26328.4
 08 11 2013  14 34  -21.0771 26095.9 -03495.1 -07.6284 26329.0
 08 11 2013  14 35  -21.0772 26096.5 -03495.1 -07.6281 26329.5
 08 11 2013  14 36  -21.0775 26097.1 -03495.0 -07.6277 26330.1
 08 11 2013  14 37  -21.0778 26097.4 -03494.7 -07.6270 26330.4
 08 11 2013  14 38  -21.0781 26097.4 -03494.3 -07.6262 26330.2
 08 11 2013  14 39  -21.0784 26097.2 -03493.8 -07.6252 26330.0
 08 11 2013  14 40  -21.0787 26097.0 -03493.4 -07.6245 26329.8
 08 11 2013  14 41  -21.0789 26097.2 -03493.2 -07.6239 26330.0
 08 11 2013  14 42  -21.0790 26097.0 -03492.8 -07.6231 26329.7
 08 11 2013  14 43  -21.0791 26097.0 -03492.5 -07.6225 26329.7
 08 11 2013  14 44  -21.0792 26097.1 -03492.3 -07.6220 26329.7
 08 11 2013  14 45  -21.0791 26097.3 -03492.1 -07.6215 26329.9
 08 11 2013  14 46  -21.0792 26097.7 -03492.0 -07.6211 26330.2
 08 11 2013  14 47  -21.0793 26098.4 -03492.0 -07.6210 26331.0
 08 11 2013  14 48  -21.0796 26098.9 -03491.9 -07.6206 26331.5
 08 11 2013  14 49  -21.0798 26099.4 -03491.7 -07.6201 26331.9
 08 11 2013  14 50  -21.0800 26099.7 -03491.4 -07.6194 26332.2
 08 11 2013  14 51  -21.0803 26100.0 -03491.2 -07.6187 26332.4
 08 11 2013  14 52  -21.0807 26100.3 -03490.9 -07.6180 26332.7
 08 11 2013  14 53  -21.0810 26100.4 -03490.5 -07.6172 26332.7
 08 11 2013  14 54  -21.0812 26100.5 -03490.2 -07.6165 26332.8
 08 11 2013  14 55  -21.0814 26100.4 -03489.8 -07.6157 26332.7
 08 11 2013  14 56  -21.0817 26100.3 -03489.5 -07.6150 26332.5
 08 11 2013  14 57  -21.0822 26100.2 -03489.2 -07.6144 26332.4
 08 11 2013  14 58  -21.0830 26100.1 -03488.8 -07.6137 26332.2
 08 11 2013  14 59  -21.0836 26100.2 -03488.7 -07.6132 26332.3
 08 11 2013  15 00  -21.0841 26100.6 -03488.6 -07.6130 26332.7
 08 11 2013  15 01  -21.0846 26101.2 -03488.5 -07.6125 26333.2
 08 11 2013  15 02  -21.0852 26101.5 -03488.2 -07.6120 26333.6
 08 11 2013  15 03  -21.0856 26101.5 -03487.8 -07.6110 26333.4
 08 11 2013  15 04  -21.0863 26101.1 -03487.2 -07.6098 26333.0
 08 11 2013  15 05  -21.0870 26100.5 -03486.6 -07.6087 26332.4
 08 11 2013  15 06  -21.0878 26099.5 -03485.9 -07.6075 26331.3
 08 11 2013  15 07  -21.0880 26099.0 -03485.5 -07.6067 26330.7
 08 11 2013  15 08  -21.0884 26098.9 -03485.3 -07.6063 26330.6
 08 11 2013  15 09  -21.0890 26099.4 -03485.3 -07.6062 26331.1
 08 11 2013  15 10  -21.0894 26100.1 -03485.3 -07.6060 26331.8
 08 11 2013  15 11  -21.0896 26100.8 -03485.2 -07.6057 26332.5
 08 11 2013  15 12  -21.0897 26101.2 -03485.0 -07.6050 26332.8
 08 11 2013  15 13  -21.0899 26101.5 -03484.7 -07.6043 26333.1
 08 11 2013  15 14  -21.0902 26101.6 -03484.3 -07.6034 26333.1
 08 11 2013  15 15  -21.0904 26101.5 -03483.8 -07.6025 26333.0
 08 11 2013  15 16  -21.0910 26101.2 -03483.3 -07.6014 26332.6
 08 11 2013  15 17  -21.0916 26100.6 -03482.7 -07.6002 26331.9
 08 11 2013  15 18  -21.0920 26100.2 -03482.2 -07.5993 26331.5
 08 11 2013  15 19  -21.0925 26100.0 -03481.8 -07.5985 26331.2
 08 11 2013  15 20  -21.0928 26099.6 -03481.4 -07.5978 26330.8
 08 11 2013  15 21  -21.0932 26099.4 -03481.1 -07.5971 26330.6
 08 11 2013  15 22  -21.0934 26099.1 -03480.7 -07.5963 26330.2
 08 11 2013  15 23  -21.0937 26099.2 -03480.4 -07.5958 26330.3
 08 11 2013  15 24  -21.0941 26099.5 -03480.3 -07.5954 26330.6
 08 11 2013  15 25  -21.0944 26099.7 -03480.0 -07.5946 26330.6
 08 11 2013  15 26  -21.0943 26099.6 -03479.5 -07.5936 26330.5
 08 11 2013  15 27  -21.0944 26099.0 -03478.8 -07.5922 26329.9
 08 11 2013  15 28  -21.0944 26098.1 -03478.0 -07.5908 26328.9
 08 11 2013  15 29  -21.0945 26096.9 -03477.1 -07.5893 26327.6
 08 11 2013  15 30  -21.0944 26095.7 -03476.4 -07.5881 26326.2
 08 11 2013  15 31  -21.0947 26094.8 -03475.9 -07.5873 26325.3
 08 11 2013  15 32  -21.0949 26094.0 -03475.4 -07.5865 26324.4
 08 11 2013  15 33  -21.0949 26093.5 -03475.2 -07.5861 26323.9
 08 11 2013  15 34  -21.0950 26093.2 -03474.9 -07.5857 26323.5
 08 11 2013  15 35  -21.0948 26092.8 -03474.7 -07.5852 26323.1
 08 11 2013  15 36  -21.0947 26092.6 -03474.4 -07.5847 26322.9
 08 11 2013  15 37  -21.0948 26092.5 -03474.2 -07.5844 26322.7
 08 11 2013  15 38  -21.0945 26092.1 -03473.9 -07.5837 26322.3
 08 11 2013  15 39  -21.0943 26091.7 -03473.6 -07.5831 26322.0
 08 11 2013  15 40  -21.0941 26091.4 -03473.2 -07.5825 26321.6
 08 11 2013  15 41  -21.0940 26091.4 -03473.1 -07.5822 26321.6
 08 11 2013  15 42  -21.0939 26091.5 -03472.9 -07.5818 26321.6
 08 11 2013  15 43  -21.0938 26091.4 -03472.7 -07.5814 26321.5
 08 11 2013  15 44  -21.0935 26091.3 -03472.5 -07.5810 26321.4
 08 11 2013  15 45  -21.0936 26091.5 -03472.4 -07.5807 26321.5
 08 11 2013  15 46  -21.0932 26091.1 -03472.0 -07.5799 26321.1
 08 11 2013  15 47  -21.0930 26091.0 -03471.8 -07.5794 26321.0
 08 11 2013  15 48  -21.0930 26091.3 -03471.7 -07.5792 26321.3
 08 11 2013  15 49  -21.0930 26091.2 -03471.4 -07.5786 26321.1
 08 11 2013  15 50  -21.0929 26090.9 -03471.0 -07.5779 26320.8
 08 11 2013  15 51  -21.0925 26090.5 -03470.6 -07.5771 26320.3
 08 11 2013  15 52  -21.0917 26090.0 -03470.2 -07.5764 26319.8
 08 11 2013  15 53  -21.0917 26089.5 -03469.9 -07.5759 26319.3
 08 11 2013  15 54  -21.0907 26089.0 -03469.5 -07.5752 26318.7
 08 11 2013  15 55  -21.0905 26089.1 -03469.6 -07.5752 26318.8
 08 11 2013  15 56  -21.0895 26089.0 -03469.5 -07.5751 26318.7
 08 11 2013  15 57  -21.0891 26089.6 -03469.7 -07.5754 26319.3
 08 11 2013  15 58  -21.0887 26089.5 -03469.6 -07.5752 26319.2
 08 11 2013  15 59  -21.0876 26089.5 -03469.4 -07.5749 26319.2
 08 11 2013  16 00  -21.0865 26088.6 -03469.0 -07.5742 26318.2
 08 11 2013  16 01  -21.0853 26088.4 -03468.9 -07.5739 26318.0
 08 11 2013  16 02  -21.0845 26088.3 -03468.8 -07.5739 26317.9
 08 11 2013  16 03  -21.0836 26087.7 -03468.6 -07.5735 26317.3
 08 11 2013  16 04  -21.0831 26087.4 -03468.5 -07.5735 26317.0
 08 11 2013  16 05  -21.0823 26086.8 -03468.3 -07.5731 26316.4
 08 11 2013  16 06  -21.0813 26085.8 -03467.9 -07.5726 26315.3
 08 11 2013  16 07  -21.0804 26085.1 -03467.6 -07.5722 26314.5
 08 11 2013  16 08  -21.0801 26084.6 -03467.6 -07.5722 26314.0
 08 11 2013  16 09  -21.0792 26084.0 -03467.4 -07.5720 26313.4
 08 11 2013  16 10  -21.0785 26083.5 -03467.3 -07.5720 26312.9
 08 11 2013  16 11  -21.0781 26083.4 -03467.4 -07.5721 26312.8
 08 11 2013  16 12  -21.0775 26083.5 -03467.4 -07.5722 26312.9
 08 11 2013  16 13  -21.0768 26083.3 -03467.3 -07.5721 26312.8
 08 11 2013  16 14  -21.0762 26083.1 -03467.2 -07.5718 26312.5
 08 11 2013  16 15  -21.0760 26083.2 -03467.2 -07.5718 26312.6
 08 11 2013  16 16  -21.0757 26082.4 -03466.8 -07.5711 26311.7
 08 11 2013  16 17  -21.0750 26081.5 -03466.3 -07.5704 26310.8
 08 11 2013  16 18  -21.0742 26080.3 -03465.8 -07.5697 26309.6
 08 11 2013  16 19  -21.0732 26079.3 -03465.4 -07.5691 26308.6
 08 11 2013  16 20  -21.0725 26078.5 -03465.2 -07.5688 26307.7
 08 11 2013  16 21  -21.0718 26078.1 -03465.2 -07.5690 26307.3
 08 11 2013  16 22  -21.0715 26078.2 -03465.4 -07.5693 26307.4
 08 11 2013  16 23  -21.0710 26078.3 -03465.6 -07.5697 26307.5
 08 11 2013  16 24  -21.0703 26078.4 -03465.7 -07.5699 26307.7
 08 11 2013  16 25  -21.0696 26078.2 -03465.6 -07.5699 26307.5
 08 11 2013  16 26  -21.0686 26078.1 -03465.6 -07.5699 26307.4
 08 11 2013  16 27  -21.0678 26077.6 -03465.5 -07.5697 26306.9
 08 11 2013  16 28  -21.0668 26077.5 -03465.5 -07.5698 26306.8
 08 11 2013  16 29  -21.0661 26077.0 -03465.4 -07.5698 26306.3
 08 11 2013  16 30  -21.0653 26076.5 -03465.3 -07.5697 26305.8
 08 11 2013  16 31  -21.0645 26076.4 -03465.5 -07.5701 26305.6
 08 11 2013  16 32  -21.0636 26076.0 -03465.5 -07.5703 26305.3
 08 11 2013  16 33  -21.0626 26075.7 -03465.6 -07.5705 26305.0
 08 11 2013  16 34  -21.0617 26075.3 -03465.6 -07.5707 26304.6
 08 11 2013  16 35  -21.0608 26075.0 -03465.8 -07.5711 26304.3
 08 11 2013  16 36  -21.0600 26074.7 -03465.9 -07.5715 26304.0
 08 11 2013  16 37  -21.0593 26074.4 -03466.0 -07.5718 26303.8
 08 11 2013  16 38  -21.0586 26074.3 -03466.2 -07.5723 26303.7
 08 11 2013  16 39  -21.0578 26074.1 -03466.4 -07.5727 26303.5
 08 11 2013  16 40  -21.0570 26073.9 -03466.6 -07.5731 26303.3
 08 11 2013  16 41  -21.0562 26073.9 -03466.8 -07.5737 26303.3
 08 11 2013  16 42  -21.0553 26073.8 -03467.1 -07.5742 26303.3
 08 11 2013  16 43  -21.0547 26074.0 -03467.4 -07.5749 26303.6
 08 11 2013  16 44  -21.0539 26074.0 -03467.6 -07.5754 26303.6
 08 11 2013  16 45  -21.0530 26074.0 -03467.9 -07.5759 26303.7
 08 11 2013  16 46  -21.0522 26073.9 -03468.1 -07.5764 26303.5
 08 11 2013  16 47  -21.0515 26073.7 -03468.3 -07.5769 26303.3
 08 11 2013  16 48  -21.0509 26073.3 -03468.4 -07.5773 26303.0
 08 11 2013  16 49  -21.0503 26072.9 -03468.6 -07.5777 26302.6
 08 11 2013  16 50  -21.0498 26072.5 -03468.7 -07.5782 26302.2
 08 11 2013  16 51  -21.0492 26072.0 -03468.8 -07.5786 26301.7
 08 11 2013  16 52  -21.0488 26071.4 -03468.9 -07.5790 26301.2
 08 11 2013  16 53  -21.0482 26071.1 -03469.3 -07.5797 26300.9
 08 11 2013  16 54  -21.0482 26070.8 -03469.5 -07.5804 26300.7
 08 11 2013  16 55  -21.0481 26070.3 -03469.7 -07.5810 26300.2
 08 11 2013  16 56  -21.0479 26070.0 -03470.0 -07.5818 26300.0
 08 11 2013  16 57  -21.0475 26069.7 -03470.3 -07.5825 26299.7
 08 11 2013  16 58  -21.0476 26069.6 -03470.7 -07.5833 26299.6
 08 11 2013  16 59  -21.0477 26069.3 -03471.0 -07.5840 26299.4
 08 11 2013  17 00  -21.0482 26069.3 -03471.4 -07.5849 26299.4
 08 11 2013  17 01  -21.0485 26069.2 -03471.8 -07.5857 26299.4
 08 11 2013  17 02  -21.0488 26069.0 -03472.0 -07.5862 26299.2
 08 11 2013  17 03  -21.0488 26068.7 -03472.1 -07.5865 26298.9
 08 11 2013  17 04  -21.0492 26068.1 -03472.1 -07.5867 26298.3
 08 11 2013  17 05  -21.0496 26067.4 -03472.1 -07.5869 26297.6
 08 11 2013  17 06  -21.0497 26066.5 -03471.9 -07.5868 26296.7
 08 11 2013  17 07  -21.0495 26065.7 -03471.8 -07.5868 26295.9
 08 11 2013  17 08  -21.0496 26064.8 -03471.7 -07.5869 26295.0
 08 11 2013  17 09  -21.0495 26064.1 -03471.7 -07.5870 26294.3
 08 11 2013  17 10  -21.0496 26063.5 -03471.8 -07.5874 26293.7
 08 11 2013  17 11  -21.0497 26063.0 -03471.9 -07.5878 26293.2
 08 11 2013  17 12  -21.0497 26062.7 -03472.0 -07.5882 26292.9
 08 11 2013  17 13  -21.0495 26062.2 -03472.1 -07.5884 26292.5
 08 11 2013  17 14  -21.0495 26062.1 -03472.3 -07.5889 26292.4
 08 11 2013  17 15  -21.0491 26061.5 -03472.2 -07.5889 26291.8
 08 11 2013  17 16  -21.0489 26061.2 -03472.3 -07.5891 26291.5
 08 11 2013  17 17  -21.0485 26060.5 -03472.2 -07.5891 26290.8
 08 11 2013  17 18  -21.0481 26060.1 -03472.1 -07.5891 26290.4
 08 11 2013  17 19  -21.0479 26059.5 -03472.0 -07.5891 26289.7
 08 11 2013  17 20  -21.0474 26059.0 -03472.0 -07.5891 26289.3
 08 11 2013  17 21  -21.0469 26058.5 -03472.0 -07.5892 26288.8
 08 11 2013  17 22  -21.0463 26058.3 -03472.0 -07.5893 26288.5
 08 11 2013  17 23  -21.0454 26057.8 -03471.9 -07.5892 26288.1
 08 11 2013  17 24  -21.0445 26057.4 -03471.8 -07.5891 26287.6
 08 11 2013  17 25  -21.0435 26057.0 -03471.8 -07.5892 26287.2
 08 11 2013  17 26  -21.0425 26056.7 -03471.8 -07.5894 26287.0
 08 11 2013  17 27  -21.0418 26056.5 -03471.9 -07.5897 26286.8
 08 11 2013  17 28  -21.0406 26056.3 -03472.0 -07.5900 26286.6
 08 11 2013  17 29  -21.0398 26056.2 -03472.1 -07.5903 26286.5
 08 11 2013  17 30  -21.0386 26056.1 -03472.3 -07.5907 26286.5
 08 11 2013  17 31  -21.0375 26056.1 -03472.5 -07.5911 26286.4
 08 11 2013  17 32  -21.0359 26056.0 -03472.7 -07.5915 26286.4
 08 11 2013  17 33  -21.0344 26055.9 -03472.9 -07.5920 26286.3
 08 11 2013  17 34  -21.0327 26055.7 -03473.1 -07.5925 26286.1
 08 11 2013  17 35  -21.0309 26055.3 -03473.3 -07.5930 26285.8
 08 11 2013  17 36  -21.0291 26054.8 -03473.4 -07.5935 26285.3
 08 11 2013  17 37  -21.0276 26054.3 -03473.6 -07.5940 26284.8
 08 11 2013  17 38  -21.0260 26053.9 -03474.0 -07.5949 26284.5
 08 11 2013  17 39  -21.0245 26053.3 -03474.3 -07.5958 26283.9
 08 11 2013  17 40  -21.0229 26052.7 -03474.7 -07.5968 26283.4
 08 11 2013  17 41  -21.0217 26052.4 -03475.2 -07.5980 26283.2
 08 11 2013  17 42  -21.0205 26052.1 -03475.7 -07.5991 26282.9
 08 11 2013  17 43  -21.0196 26051.7 -03476.2 -07.6003 26282.6
 08 11 2013  17 44  -21.0186 26051.4 -03476.7 -07.6016 26282.4
 08 11 2013  17 45  -21.0179 26051.1 -03477.3 -07.6028 26282.1
 08 11 2013  17 46  -21.0173 26050.7 -03477.8 -07.6040 26281.8
 08 11 2013  17 47  -21.0168 26050.2 -03478.3 -07.6052 26281.4
 08 11 2013  17 48  -21.0164 26049.9 -03478.7 -07.6064 26281.1
 08 11 2013  17 49  -21.0162 26049.6 -03479.3 -07.6077 26280.9
 08 11 2013  17 50  -21.0161 26049.1 -03479.8 -07.6089 26280.5
 08 11 2013  17 51  -21.0160 26048.8 -03480.4 -07.6101 26280.3
 08 11 2013  17 52  -21.0161 26048.5 -03480.9 -07.6115 26280.1
 08 11 2013  17 53  -21.0163 26048.2 -03481.5 -07.6127 26279.9
 08 11 2013  17 54  -21.0165 26048.0 -03482.0 -07.6138 26279.7
 08 11 2013  17 55  -21.0168 26047.8 -03482.5 -07.6151 26279.6
 08 11 2013  17 56  -21.0170 26047.8 -03483.1 -07.6163 26279.6
 08 11 2013  17 57  -21.0175 26047.7 -03483.6 -07.6174 26279.6
 08 11 2013  17 58  -21.0182 26047.6 -03484.0 -07.6184 26279.6
 08 11 2013  17 59  -21.0189 26047.5 -03484.5 -07.6195 26279.5
 08 11 2013  18 00  -21.0196 26047.2 -03484.8 -07.6203 26279.3
 08 11 2013  18 01  -21.0205 26046.9 -03485.1 -07.6210 26279.0
 08 11 2013  18 02  -21.0212 26046.2 -03485.2 -07.6215 26278.4
 08 11 2013  18 03  -21.0220 26045.7 -03485.4 -07.6221 26277.8
 08 11 2013  18 04  -21.0227 26045.1 -03485.6 -07.6226 26277.3
 08 11 2013  18 05  -21.0235 26044.7 -03485.9 -07.6233 26276.9
 08 11 2013  18 06  -21.0242 26044.3 -03486.1 -07.6238 26276.6
 08 11 2013  18 07  -21.0249 26044.0 -03486.4 -07.6246 26276.4
 08 11 2013  18 08  -21.0255 26043.8 -03486.7 -07.6252 26276.2
 08 11 2013  18 09  -21.0260 26043.6 -03487.0 -07.6259 26276.0
 08 11 2013  18 10  -21.0264 26043.5 -03487.3 -07.6267 26276.0
 08 11 2013  18 11  -21.0268 26043.3 -03487.5 -07.6272 26275.8
 08 11 2013  18 12  -21.0268 26043.0 -03487.8 -07.6278 26275.5
 08 11 2013  18 13  -21.0269 26042.9 -03488.0 -07.6284 26275.4
 08 11 2013  18 14  -21.0271 26042.6 -03488.3 -07.6290 26275.2
 08 11 2013  18 15  -21.0272 26042.3 -03488.5 -07.6296 26274.9
 08 11 2013  18 16  -21.0272 26042.0 -03488.7 -07.6301 26274.7
 08 11 2013  18 17  -21.0272 26041.6 -03488.9 -07.6308 26274.3
 08 11 2013  18 18  -21.0273 26041.3 -03489.2 -07.6315 26274.1
 08 11 2013  18 19  -21.0272 26041.0 -03489.5 -07.6321 26273.8
 08 11 2013  18 20  -21.0272 26040.8 -03489.8 -07.6329 26273.6
 08 11 2013  18 21  -21.0273 26040.6 -03490.2 -07.6337 26273.5
 08 11 2013  18 22  -21.0274 26040.3 -03490.5 -07.6345 26273.2
 08 11 2013  18 23  -21.0277 26040.2 -03490.9 -07.6354 26273.2
 08 11 2013  18 24  -21.0280 26040.1 -03491.3 -07.6364 26273.1
 08 11 2013  18 25  -21.0281 26039.9 -03491.7 -07.6373 26273.0
 08 11 2013  18 26  -21.0286 26039.9 -03492.2 -07.6382 26273.0
 08 11 2013  18 27  -21.0291 26039.7 -03492.6 -07.6392 26272.9
 08 11 2013  18 28  -21.0296 26039.6 -03493.0 -07.6402 26272.9
 08 11 2013  18 29  -21.0302 26039.4 -03493.4 -07.6411 26272.7
 08 11 2013  18 30  -21.0308 26039.2 -03493.8 -07.6419 26272.6
 08 11 2013  18 31  -21.0313 26039.0 -03494.1 -07.6428 26272.4
 08 11 2013  18 32  -21.0322 26039.0 -03494.6 -07.6437 26272.4
 08 11 2013  18 33  -21.0331 26039.0 -03495.1 -07.6448 26272.6
 08 11 2013  18 34  -21.0340 26039.1 -03495.5 -07.6457 26272.6
 08 11 2013  18 35  -21.0349 26038.9 -03495.8 -07.6464 26272.5
 08 11 2013  18 36  -21.0359 26038.8 -03496.1 -07.6470 26272.5
 08 11 2013  18 37  -21.0366 26038.7 -03496.4 -07.6477 26272.4
 08 11 2013  18 38  -21.0374 26038.6 -03496.6 -07.6483 26272.3
 08 11 2013  18 39  -21.0377 26039.5 -03497.4 -07.6496 26273.3
 08 11 2013  18 40  -21.0392 26040.2 -03498.0 -07.6508 26274.1
 08 11 2013  18 41  -21.0400 26040.7 -03498.4 -07.6515 26274.6
 08 11 2013  18 42  -21.0408 26040.8 -03498.5 -07.6517 26274.8
 08 11 2013  18 43  -21.0413 26040.7 -03498.6 -07.6518 26274.6
 08 11 2013  18 44  -21.0419 26040.4 -03498.6 -07.6520 26274.3
 08 11 2013  18 45  -21.0426 26040.0 -03498.6 -07.6522 26274.0
 08 11 2013  18 46  -21.0433 26039.5 -03498.6 -07.6523 26273.5
 08 11 2013  18 47  -21.0440 26039.0 -03498.6 -07.6525 26273.0
 08 11 2013  18 48  -21.0447 26038.7 -03498.7 -07.6527 26272.7
 08 11 2013  18 49  -21.0452 26038.5 -03498.8 -07.6530 26272.5
 08 11 2013  18 50  -21.0457 26038.3 -03498.9 -07.6534 26272.3
 08 11 2013  18 51  -21.0462 26038.3 -03499.2 -07.6539 26272.3
 08 11 2013  18 52  -21.0467 26038.2 -03499.3 -07.6542 26272.3
 08 11 2013  18 53  -21.0470 26038.1 -03499.4 -07.6545 26272.2
 08 11 2013  18 54  -21.0474 26038.1 -03499.5 -07.6547 26272.2
 08 11 2013  18 55  -21.0477 26038.0 -03499.6 -07.6549 26272.1
 08 11 2013  18 56  -21.0481 26037.9 -03499.7 -07.6551 26272.0
 08 11 2013  18 57  -21.0483 26037.9 -03499.8 -07.6554 26272.1
 08 11 2013  18 58  -21.0486 26037.9 -03499.9 -07.6555 26272.0
 08 11 2013  18 59  -21.0489 26037.8 -03499.9 -07.6557 26272.0
 08 11 2013  19 00  -21.0493 26037.8 -03500.0 -07.6558 26272.0
 08 11 2013  19 01  -21.0496 26037.8 -03500.0 -07.6559 26271.9
 08 11 2013  19 02  -21.0499 26037.7 -03500.1 -07.6559 26271.9
 08 11 2013  19 03  -21.0501 26037.7 -03500.2 -07.6562 26271.9
 08 11 2013  19 04  -21.0504 26037.5 -03500.2 -07.6563 26271.7
 08 11 2013  19 05  -21.0506 26037.3 -03500.1 -07.6562 26271.5
 08 11 2013  19 06  -21.0509 26037.1 -03500.1 -07.6562 26271.3
 08 11 2013  19 07  -21.0510 26037.0 -03500.1 -07.6562 26271.2
 08 11 2013  19 08  -21.0511 26036.9 -03500.2 -07.6564 26271.1
 08 11 2013  19 09  -21.0513 26036.7 -03500.2 -07.6565 26271.0
 08 11 2013  19 10  -21.0514 26036.6 -03500.2 -07.6566 26270.8
 08 11 2013  19 11  -21.0516 26036.5 -03500.3 -07.6567 26270.7
 08 11 2013  19 12  -21.0517 26036.4 -03500.3 -07.6568 26270.6
 08 11 2013  19 13  -21.0519 26036.4 -03500.4 -07.6570 26270.7
 08 11 2013  19 14  -21.0521 26036.4 -03500.5 -07.6573 26270.6
 08 11 2013  19 15  -21.0522 26036.3 -03500.5 -07.6574 26270.6
 08 11 2013  19 16  -21.0522 26036.3 -03500.6 -07.6575 26270.6
 08 11 2013  19 17  -21.0523 26036.2 -03500.6 -07.6576 26270.5
 08 11 2013  19 18  -21.0523 26036.3 -03500.7 -07.6578 26270.6
 08 11 2013  19 19  -21.0525 26036.4 -03500.8 -07.6580 26270.7
 08 11 2013  19 20  -21.0526 26036.5 -03500.9 -07.6582 26270.8
 08 11 2013  19 21  -21.0525 26036.5 -03501.0 -07.6583 26270.8
 08 11 2013  19 22  -21.0526 26036.6 -03501.0 -07.6583 26270.9
 08 11 2013  19 23  -21.0526 26036.6 -03501.1 -07.6585 26270.9
 08 11 2013  19 24  -21.0525 26036.5 -03501.0 -07.6584 26270.9
 08 11 2013  19 25  -21.0525 26036.5 -03501.1 -07.6585 26270.9
 08 11 2013  19 26  -21.0524 26036.4 -03501.1 -07.6585 26270.8
 08 11 2013  19 27  -21.0523 26036.3 -03501.0 -07.6584 26270.6
 08 11 2013  19 28  -21.0522 26036.2 -03500.9 -07.6583 26270.5
 08 11 2013  19 29  -21.0520 26036.0 -03500.8 -07.6581 26270.3
 08 11 2013  19 30  -21.0518 26035.9 -03500.8 -07.6580 26270.2
 08 11 2013  19 31  -21.0515 26035.7 -03500.7 -07.6579 26270.0
 08 11 2013  19 32  -21.0513 26035.7 -03500.7 -07.6579 26270.0
 08 11 2013  19 33  -21.0511 26035.6 -03500.6 -07.6578 26269.9
 08 11 2013  19 34  -21.0508 26035.7 -03500.7 -07.6579 26270.0
 08 11 2013  19 35  -21.0506 26035.7 -03500.7 -07.6579 26270.0
 08 11 2013  19 36  -21.0503 26035.7 -03500.6 -07.6578 26270.0
 08 11 2013  19 37  -21.0500 26035.7 -03500.6 -07.6578 26270.0
 08 11 2013  19 38  -21.0496 26035.7 -03500.6 -07.6577 26270.0
 08 11 2013  19 39  -21.0494 26035.7 -03500.6 -07.6578 26270.0
 08 11 2013  19 40  -21.0490 26035.7 -03500.6 -07.6577 26270.0
 08 11 2013  19 41  -21.0486 26035.8 -03500.6 -07.6578 26270.1
 08 11 2013  19 42  -21.0482 26036.0 -03500.7 -07.6579 26270.3
 08 11 2013  19 43  -21.0478 26036.2 -03500.7 -07.6579 26270.5
 08 11 2013  19 44  -21.0474 26036.3 -03500.8 -07.6580 26270.6
 08 11 2013  19 45  -21.0470 26036.5 -03500.9 -07.6581 26270.8
 08 11 2013  19 46  -21.0467 26036.5 -03500.9 -07.6580 26270.8
 08 11 2013  19 47  -21.0462 26036.5 -03500.8 -07.6579 26270.8
 08 11 2013  19 48  -21.0459 26036.6 -03500.8 -07.6579 26270.9
 08 11 2013  19 49  -21.0454 26036.6 -03500.8 -07.6579 26270.9
 08 11 2013  19 50  -21.0451 26036.4 -03500.7 -07.6577 26270.7
 08 11 2013  19 51  -21.0449 26036.2 -03500.6 -07.6575 26270.5
 08 11 2013  19 52  -21.0446 26036.0 -03500.5 -07.6573 26270.3
 08 11 2013  19 53  -21.0442 26035.9 -03500.4 -07.6571 26270.1
 08 11 2013  19 54  -21.0439 26035.8 -03500.3 -07.6571 26270.0
 08 11 2013  19 55  -21.0437 26035.6 -03500.3 -07.6570 26269.9
 08 11 2013  19 56  -21.0435 26035.5 -03500.2 -07.6569 26269.7
 08 11 2013  19 57  -21.0432 26035.3 -03500.1 -07.6567 26269.5
 08 11 2013  19 58  -21.0429 26035.2 -03500.1 -07.6567 26269.4
 08 11 2013  19 59  -21.0426 26035.2 -03500.0 -07.6566 26269.4
 08 11 2013  20 00  -21.0423 26035.1 -03500.0 -07.6566 26269.3
 08 11 2013  20 01  -21.0421 26035.0 -03500.0 -07.6566 26269.2
 08 11 2013  20 02  -21.0419 26035.0 -03500.0 -07.6567 26269.2
 08 11 2013  20 03  -21.0416 26035.0 -03500.0 -07.6567 26269.2
 08 11 2013  20 04  -21.0414 26034.9 -03500.0 -07.6567 26269.1
 08 11 2013  20 05  -21.0411 26034.9 -03500.0 -07.6567 26269.1
 08 11 2013  20 06  -21.0407 26034.8 -03500.0 -07.6567 26269.0
 08 11 2013  20 07  -21.0403 26034.7 -03500.0 -07.6567 26268.9
 08 11 2013  20 08  -21.0399 26034.7 -03500.0 -07.6567 26268.9
 08 11 2013  20 09  -21.0395 26034.6 -03500.0 -07.6568 26268.8
 08 11 2013  20 10  -21.0390 26034.6 -03500.1 -07.6569 26268.8
 08 11 2013  20 11  -21.0386 26034.6 -03500.1 -07.6570 26268.8
 08 11 2013  20 12  -21.0381 26034.6 -03500.1 -07.6570 26268.8
 08 11 2013  20 13  -21.0375 26034.6 -03500.2 -07.6571 26268.8
 08 11 2013  20 14  -21.0372 26034.5 -03500.2 -07.6571 26268.8
 08 11 2013  20 15  -21.0367 26034.5 -03500.1 -07.6571 26268.7
 08 11 2013  20 16  -21.0362 26034.4 -03500.2 -07.6572 26268.7
 08 11 2013  20 17  -21.0357 26034.3 -03500.1 -07.6571 26268.5
 08 11 2013  20 18  -21.0351 26034.2 -03500.1 -07.6571 26268.4
 08 11 2013  20 19  -21.0346 26034.0 -03500.1 -07.6570 26268.2
 08 11 2013  20 20  -21.0340 26033.8 -03500.0 -07.6570 26268.0
 08 11 2013  20 21  -21.0334 26033.6 -03499.9 -07.6568 26267.8
 08 11 2013  20 22  -21.0327 26033.5 -03499.9 -07.6568 26267.7
 08 11 2013  20 23  -21.0321 26033.4 -03499.9 -07.6568 26267.6
 08 11 2013  20 24  -21.0316 26033.4 -03499.9 -07.6569 26267.7
 08 11 2013  20 25  -21.0310 26033.5 -03500.0 -07.6571 26267.7
 08 11 2013  20 26  -21.0304 26033.5 -03500.0 -07.6571 26267.8
 08 11 2013  20 27  -21.0298 26033.6 -03500.1 -07.6572 26267.8
 08 11 2013  20 28  -21.0292 26033.6 -03500.1 -07.6573 26267.8
 08 11 2013  20 29  -21.0286 26033.6 -03500.2 -07.6574 26267.8
 08 11 2013  20 30  -21.0279 26033.6 -03500.2 -07.6574 26267.9
 08 11 2013  20 31  -21.0273 26033.8 -03500.3 -07.6576 26268.0
 08 11 2013  20 32  -21.0267 26033.8 -03500.3 -07.6576 26268.1
 08 11 2013  20 33  -21.0261 26033.8 -03500.3 -07.6576 26268.1
 08 11 2013  20 34  -21.0255 26033.8 -03500.3 -07.6576 26268.0
 08 11 2013  20 35  -21.0249 26033.7 -03500.2 -07.6575 26268.0
 08 11 2013  20 36  -21.0243 26033.7 -03500.2 -07.6575 26267.9
 08 11 2013  20 37  -21.0237 26033.6 -03500.2 -07.6575 26267.9
 08 11 2013  20 38  -21.0230 26033.5 -03500.2 -07.6574 26267.8
 08 11 2013  20 39  -21.0223 26033.4 -03500.1 -07.6573 26267.6
 08 11 2013  20 40  -21.0217 26033.3 -03500.1 -07.6572 26267.5
 08 11 2013  20 41  -21.0210 26033.1 -03500.0 -07.6572 26267.3
 08 11 2013  20 42  -21.0203 26033.0 -03499.9 -07.6570 26267.2
 08 11 2013  20 43  -21.0196 26032.8 -03499.8 -07.6569 26267.0
 08 11 2013  20 44  -21.0189 26032.7 -03499.8 -07.6569 26266.9
 08 11 2013  20 45  -21.0182 26032.6 -03499.8 -07.6569 26266.8
 08 11 2013  20 46  -21.0176 26032.5 -03499.9 -07.6571 26266.8
 08 11 2013  20 47  -21.0169 26032.4 -03499.9 -07.6571 26266.6
 08 11 2013  20 48  -21.0162 26032.2 -03499.9 -07.6571 26266.4
 08 11 2013  20 49  -21.0155 26032.0 -03499.9 -07.6572 26266.3
 08 11 2013  20 50  -21.0148 26031.9 -03499.9 -07.6572 26266.1
 08 11 2013  20 51  -21.0142 26031.8 -03500.0 -07.6574 26266.1
 08 11 2013  20 52  -21.0136 26031.8 -03500.1 -07.6578 26266.1
 08 11 2013  20 53  -21.0129 26031.9 -03500.3 -07.6581 26266.1
 08 11 2013  20 54  -21.0124 26031.9 -03500.3 -07.6582 26266.1
 08 11 2013  20 55  -21.0117 26031.8 -03500.6 -07.6588 26266.1
 08 11 2013  20 56  -21.0112 26031.6 -03500.7 -07.6591 26266.0
 08 11 2013  20 57  -21.0109 26031.4 -03500.8 -07.6593 26265.7
 08 11 2013  20 58  -21.0106 26031.3 -03500.8 -07.6595 26265.6
 08 11 2013  20 59  -21.0105 26031.0 -03500.9 -07.6597 26265.4
 08 11 2013  21 00  -21.0103 26031.0 -03501.0 -07.6599 26265.3
 08 11 2013  21 01  -21.0102 26030.9 -03501.1 -07.6601 26265.3
 08 11 2013  21 02  -21.0102 26031.1 -03501.3 -07.6605 26265.5
 08 11 2013  21 03  -21.0100 26031.2 -03501.4 -07.6608 26265.6
 08 11 2013  21 04  -21.0098 26031.2 -03501.5 -07.6610 26265.6
 08 11 2013  21 05  -21.0096 26031.1 -03501.5 -07.6611 26265.5
 08 11 2013  21 06  -21.0093 26031.0 -03501.6 -07.6612 26265.5
 08 11 2013  21 07  -21.0090 26030.8 -03501.6 -07.6612 26265.3
 08 11 2013  21 08  -21.0087 26030.7 -03501.6 -07.6613 26265.2
 08 11 2013  21 09  -21.0085 26030.6 -03501.6 -07.6613 26265.0
 08 11 2013  21 10  -21.0082 26030.5 -03501.6 -07.6614 26264.9
 08 11 2013  21 11  -21.0079 26030.4 -03501.7 -07.6617 26264.9
 08 11 2013  21 12  -21.0075 26030.4 -03501.8 -07.6618 26264.9
 08 11 2013  21 13  -21.0074 26030.4 -03501.9 -07.6620 26264.9
 08 11 2013  21 14  -21.0071 26030.3 -03502.0 -07.6623 26264.8
 08 11 2013  21 15  -21.0069 26030.3 -03502.1 -07.6626 26264.8
 08 11 2013  21 16  -21.0066 26030.3 -03502.2 -07.6628 26264.8
 08 11 2013  21 17  -21.0064 26030.3 -03502.3 -07.6630 26264.8
 08 11 2013  21 18  -21.0061 26030.2 -03502.4 -07.6633 26264.8
 08 11 2013  21 19  -21.0059 26030.1 -03502.5 -07.6634 26264.6
 08 11 2013  21 20  -21.0056 26029.8 -03502.5 -07.6636 26264.4
 08 11 2013  21 21  -21.0054 26029.6 -03502.5 -07.6636 26264.2
 08 11 2013  21 22  -21.0053 26029.4 -03502.5 -07.6637 26264.0
 08 11 2013  21 23  -21.0050 26029.3 -03502.5 -07.6637 26263.9
 08 11 2013  21 24  -21.0046 26029.3 -03502.7 -07.6641 26263.9
 08 11 2013  21 25  -21.0046 26029.4 -03502.9 -07.6646 26264.0
 08 11 2013  21 26  -21.0044 26029.3 -03503.0 -07.6648 26264.0
 08 11 2013  21 27  -21.0042 26029.1 -03503.0 -07.6649 26263.8
 08 11 2013  21 28  -21.0040 26029.1 -03503.2 -07.6651 26263.8
 08 11 2013  21 29  -21.0037 26029.2 -03503.3 -07.6653 26263.8
 08 11 2013  21 30  -21.0033 26029.2 -03503.3 -07.6655 26263.9
 08 11 2013  21 31  -21.0033 26029.0 -03503.4 -07.6657 26263.7
 08 11 2013  21 32  -21.0032 26028.9 -03503.4 -07.6657 26263.6
 08 11 2013  21 33  -21.0031 26028.8 -03503.5 -07.6659 26263.5
 08 11 2013  21 34  -21.0030 26028.7 -03503.5 -07.6660 26263.4
 08 11 2013  21 35  -21.0029 26028.9 -03503.7 -07.6663 26263.6
 08 11 2013  21 36  -21.0028 26028.9 -03503.8 -07.6667 26263.7
 08 11 2013  21 37  -21.0026 26029.0 -03504.0 -07.6669 26263.8
 08 11 2013  21 38  -21.0025 26029.1 -03504.1 -07.6671 26263.9
 08 11 2013  21 39  -21.0024 26029.1 -03504.1 -07.6673 26263.9
 08 11 2013  21 40  -21.0021 26029.0 -03504.2 -07.6674 26263.8
 08 11 2013  21 41  -21.0020 26028.9 -03504.2 -07.6674 26263.7
 08 11 2013  21 42  -21.0017 26028.8 -03504.2 -07.6676 26263.7
 08 11 2013  21 43  -21.0014 26028.9 -03504.3 -07.6677 26263.7
 08 11 2013  21 44  -21.0012 26029.0 -03504.5 -07.6680 26263.8
 08 11 2013  21 45  -21.0009 26029.1 -03504.6 -07.6682 26263.9
 08 11 2013  21 46  -21.0006 26029.0 -03504.6 -07.6682 26263.9
 08 11 2013  21 47  -21.0005 26028.8 -03504.6 -07.6683 26263.7
 08 11 2013  21 48  -21.0002 26028.6 -03504.5 -07.6682 26263.5
 08 11 2013  21 49  -21.0000 26028.6 -03504.6 -07.6684 26263.4
 08 11 2013  21 50  -20.9998 26028.5 -03504.6 -07.6685 26263.4
 08 11 2013  21 51  -20.9996 26028.4 -03504.6 -07.6685 26263.3
 08 11 2013  21 52  -20.9993 26028.3 -03504.6 -07.6685 26263.2
 08 11 2013  21 53  -20.9991 26028.2 -03504.6 -07.6686 26263.1
 08 11 2013  21 54  -20.9989 26028.2 -03504.7 -07.6687 26263.1
 08 11 2013  21 55  -20.9989 26028.1 -03504.7 -07.6688 26263.0
 08 11 2013  21 56  -20.9990 26027.9 -03504.7 -07.6689 26262.8
 08 11 2013  21 57  -20.9991 26027.8 -03504.8 -07.6690 26262.7
 08 11 2013  21 58  -20.9991 26027.8 -03504.8 -07.6691 26262.7
 08 11 2013  21 59  -20.9994 26027.7 -03504.9 -07.6693 26262.6
 08 11 2013  22 00  -20.9992 26027.6 -03504.9 -07.6693 26262.6
 08 11 2013  22 01  -20.9990 26027.6 -03504.9 -07.6694 26262.5
 08 11 2013  22 02  -20.9990 26027.5 -03504.9 -07.6695 26262.4
 08 11 2013  22 03  -20.9989 26027.3 -03504.9 -07.6695 26262.2
 08 11 2013  22 04  -20.9989 26027.3 -03505.0 -07.6697 26262.2
 08 11 2013  22 05  -20.9988 26027.4 -03505.1 -07.6699 26262.4
 08 11 2013  22 06  -20.9990 26027.3 -03505.2 -07.6701 26262.3
 08 11 2013  22 07  -20.9989 26027.4 -03505.3 -07.6702 26262.4
 08 11 2013  22 08  -20.9988 26027.6 -03505.4 -07.6705 26262.6
 08 11 2013  22 09  -20.9986 26027.6 -03505.5 -07.6707 26262.7
 08 11 2013  22 10  -20.9986 26027.6 -03505.6 -07.6709 26262.6
 08 11 2013  22 11  -20.9985 26027.5 -03505.6 -07.6710 26262.6
 08 11 2013  22 12  -20.9983 26027.5 -03505.7 -07.6710 26262.6
 08 11 2013  22 13  -20.9982 26027.7 -03505.8 -07.6712 26262.7
 08 11 2013  22 14  -20.9982 26027.8 -03505.9 -07.6714 26262.8
 08 11 2013  22 15  -20.9982 26027.6 -03505.9 -07.6715 26262.7
 08 11 2013  22 16  -20.9981 26027.3 -03505.7 -07.6712 26262.3
 08 11 2013  22 17  -20.9979 26026.9 -03505.6 -07.6710 26261.9
 08 11 2013  22 18  -20.9976 26026.7 -03505.4 -07.6708 26261.7
 08 11 2013  22 19  -20.9974 26026.5 -03505.4 -07.6708 26261.6
 08 11 2013  22 20  -20.9971 26026.5 -03505.5 -07.6709 26261.5
 08 11 2013  22 21  -20.9970 26026.4 -03505.5 -07.6710 26261.4
 08 11 2013  22 22  -20.9970 26026.4 -03505.6 -07.6712 26261.4
 08 11 2013  22 23  -20.9970 26026.2 -03505.5 -07.6711 26261.2
 08 11 2013  22 24  -20.9971 26026.2 -03505.6 -07.6712 26261.2
 08 11 2013  22 25  -20.9970 26026.3 -03505.7 -07.6714 26261.4
 08 11 2013  22 26  -20.9968 26026.6 -03505.8 -07.6716 26261.7
 08 11 2013  22 27  -20.9966 26027.0 -03506.1 -07.6720 26262.1
 08 11 2013  22 28  -20.9967 26026.9 -03506.1 -07.6721 26262.0
 08 11 2013  22 29  -20.9967 26026.7 -03506.0 -07.6721 26261.8
 08 11 2013  22 30  -20.9967 26026.6 -03506.0 -07.6719 26261.7
 08 11 2013  22 31  -20.9967 26026.5 -03505.9 -07.6718 26261.5
 08 11 2013  22 32  -20.9968 26026.4 -03505.9 -07.6718 26261.4
 08 11 2013  22 33  -20.9969 26026.2 -03505.8 -07.6718 26261.3
 08 11 2013  22 34  -20.9971 26026.1 -03505.8 -07.6717 26261.1
 08 11 2013  22 35  -20.9971 26026.1 -03505.8 -07.6717 26261.2
 08 11 2013  22 36  -20.9971 26026.3 -03505.9 -07.6719 26261.3
 08 11 2013  22 37  -20.9971 26026.3 -03505.9 -07.6719 26261.4
 08 11 2013  22 38  -20.9970 26026.5 -03506.0 -07.6721 26261.5
 08 11 2013  22 39  -20.9968 26026.6 -03506.1 -07.6722 26261.7
 08 11 2013  22 40  -20.9966 26026.7 -03506.1 -07.6723 26261.8
 08 11 2013  22 41  -20.9964 26026.8 -03506.2 -07.6723 26261.9
 08 11 2013  22 42  -20.9961 26026.7 -03506.1 -07.6723 26261.8
 08 11 2013  22 43  -20.9962 26026.7 -03506.1 -07.6722 26261.8
 08 11 2013  22 44  -20.9962 26026.8 -03506.1 -07.6723 26261.9
 08 11 2013  22 45  -20.9962 26026.8 -03506.2 -07.6723 26261.9
 08 11 2013  22 46  -20.9964 26026.6 -03506.1 -07.6723 26261.7
 08 11 2013  22 47  -20.9967 26026.3 -03506.0 -07.6721 26261.4
 08 11 2013  22 48  -20.9968 26026.2 -03505.9 -07.6720 26261.3
 08 11 2013  22 49  -20.9967 26026.3 -03506.0 -07.6720 26261.4
 08 11 2013  22 50  -20.9969 26026.2 -03506.0 -07.6721 26261.3
 08 11 2013  22 51  -20.9968 26026.2 -03505.9 -07.6720 26261.3
 08 11 2013  22 52  -20.9967 26026.2 -03505.9 -07.6720 26261.3
 08 11 2013  22 53  -20.9966 26026.1 -03505.9 -07.6720 26261.2
 08 11 2013  22 54  -20.9965 26026.1 -03505.9 -07.6720 26261.2
 08 11 2013  22 55  -20.9965 26026.2 -03506.0 -07.6721 26261.3
 08 11 2013  22 56  -20.9964 26026.2 -03506.0 -07.6721 26261.3
 08 11 2013  22 57  -20.9965 26026.2 -03506.0 -07.6722 26261.3
 08 11 2013  22 58  -20.9966 26026.1 -03506.0 -07.6722 26261.2
 08 11 2013  22 59  -20.9966 26026.1 -03506.0 -07.6722 26261.2
 08 11 2013  23 00  -20.9966 26026.2 -03506.1 -07.6723 26261.3
 08 11 2013  23 01  -20.9966 26026.2 -03506.1 -07.6723 26261.3
 08 11 2013  23 02  -20.9966 26026.2 -03506.1 -07.6723 26261.3
 08 11 2013  23 03  -20.9967 26026.3 -03506.2 -07.6724 26261.4
 08 11 2013  23 04  -20.9969 26026.3 -03506.2 -07.6726 26261.4
 08 11 2013  23 05  -20.9966 26026.3 -03506.2 -07.6725 26261.4
 08 11 2013  23 06  -20.9966 26026.3 -03506.1 -07.6724 26261.4
 08 11 2013  23 07  -20.9964 26026.4 -03506.2 -07.6725 26261.5
 08 11 2013  23 08  -20.9962 26026.6 -03506.3 -07.6727 26261.7
 08 11 2013  23 09  -20.9960 26026.7 -03506.4 -07.6728 26261.8
 08 11 2013  23 10  -20.9958 26026.8 -03506.4 -07.6729 26262.0
 08 11 2013  23 11  -20.9960 26026.8 -03506.5 -07.6729 26261.9
 08 11 2013  23 12  -20.9960 26026.5 -03506.3 -07.6728 26261.6
 08 11 2013  23 13  -20.9958 26026.4 -03506.2 -07.6726 26261.5
 08 11 2013  23 14  -20.9958 26026.3 -03506.2 -07.6726 26261.4
 08 11 2013  23 15  -20.9956 26026.1 -03506.1 -07.6725 26261.2
 08 11 2013  23 16  -20.9955 26026.1 -03506.1 -07.6724 26261.2
 08 11 2013  23 17  -20.9954 26026.1 -03506.2 -07.6725 26261.3
 08 11 2013  23 18  -20.9954 26026.1 -03506.2 -07.6725 26261.2
 08 11 2013  23 19  -20.9953 26026.1 -03506.2 -07.6725 26261.2
 08 11 2013  23 20  -20.9952 26026.2 -03506.2 -07.6726 26261.3
 08 11 2013  23 21  -20.9951 26026.3 -03506.3 -07.6727 26261.4
 08 11 2013  23 22  -20.9951 26026.3 -03506.3 -07.6728 26261.4
 08 11 2013  23 23  -20.9950 26026.4 -03506.3 -07.6728 26261.5
 08 11 2013  23 24  -20.9946 26026.4 -03506.3 -07.6728 26261.5
 08 11 2013  23 25  -20.9948 26026.4 -03506.4 -07.6728 26261.5
 08 11 2013  23 26  -20.9948 26026.1 -03506.2 -07.6727 26261.2
 08 11 2013  23 27  -20.9947 26026.1 -03506.2 -07.6726 26261.2
 08 11 2013  23 28  -20.9948 26026.3 -03506.3 -07.6728 26261.4
 08 11 2013  23 29  -20.9950 26026.4 -03506.4 -07.6730 26261.6
 08 11 2013  23 30  -20.9954 26026.4 -03506.4 -07.6730 26261.5
 08 11 2013  23 31  -20.9953 26026.2 -03506.3 -07.6728 26261.3
 08 11 2013  23 32  -20.9948 26026.1 -03506.2 -07.6725 26261.3
 08 11 2013  23 33  -20.9946 26026.3 -03506.2 -07.6726 26261.4
 08 11 2013  23 34  -20.9945 26026.5 -03506.3 -07.6727 26261.6
 08 11 2013  23 35  -20.9942 26026.6 -03506.4 -07.6729 26261.7
 08 11 2013  23 36  -20.9942 26026.8 -03506.5 -07.6730 26261.9
 08 11 2013  23 37  -20.9939 26027.0 -03506.5 -07.6731 26262.1
 08 11 2013  23 38  -20.9939 26027.1 -03506.6 -07.6732 26262.3
 08 11 2013  23 39  -20.9940 26027.0 -03506.6 -07.6732 26262.2
 08 11 2013  23 40  -20.9940 26026.9 -03506.5 -07.6730 26262.0
 08 11 2013  23 41  -20.9941 26026.6 -03506.4 -07.6728 26261.8
 08 11 2013  23 42  -20.9942 26026.2 -03506.2 -07.6726 26261.3
 08 11 2013  23 43  -20.9940 26025.7 -03506.0 -07.6722 26260.8
 08 11 2013  23 44  -20.9938 26025.3 -03505.7 -07.6718 26260.4
 08 11 2013  23 45  -20.9939 26025.0 -03505.6 -07.6716 26260.1
 08 11 2013  23 46  -20.9944 26024.6 -03505.5 -07.6715 26259.6
 08 11 2013  23 47  -20.9944 26024.0 -03505.2 -07.6711 26259.0
 08 11 2013  23 48  -20.9943 26023.7 -03505.0 -07.6708 26258.6
 08 11 2013  23 49  -20.9944 26023.6 -03505.1 -07.6709 26258.6
 08 11 2013  23 50  -20.9943 26023.7 -03505.2 -07.6711 26258.7
 08 11 2013  23 51  -20.9942 26023.7 -03505.3 -07.6713 26258.7
 08 11 2013  23 52  -20.9941 26023.7 -03505.4 -07.6715 26258.8
 08 11 2013  23 53  -20.9939 26023.8 -03505.5 -07.6717 26258.9
 08 11 2013  23 54  -20.9939 26024.0 -03505.6 -07.6720 26259.0
 08 11 2013  23 55  -20.9939 26024.2 -03505.8 -07.6722 26259.2
 08 11 2013  23 56  -20.9939 26024.3 -03505.9 -07.6725 26259.4
 08 11 2013  23 57  -20.9937 26024.5 -03506.0 -07.6726 26259.6
