SAO LUIS EMBRACE-03 <305> 1 Min. Reported data

 DD MM YYYY  HH MM   D(Deg)  H(nT)   Z(nT)   I(Deg)   F(nT)

 01 11 2013  00 00  -21.0234 25998.3 -03499.6 -07.6663 26232.8
 01 11 2013  00 01  -21.0235 25998.0 -03499.4 -07.6661 26232.5
 01 11 2013  00 02  -21.0238 25997.9 -03499.4 -07.6662 26232.3
 01 11 2013  00 03  -21.0240 25997.8 -03499.4 -07.6662 26232.3
 01 11 2013  00 04  -21.0244 25997.8 -03499.4 -07.6661 26232.2
 01 11 2013  00 05  -21.0248 25997.6 -03499.4 -07.6662 26232.1
 01 11 2013  00 06  -21.0255 25997.5 -03499.4 -07.6663 26232.0
 01 11 2013  00 07  -21.0258 25997.4 -03499.4 -07.6663 26231.9
 01 11 2013  00 08  -21.0263 25997.3 -03499.4 -07.6663 26231.8
 01 11 2013  00 09  -21.0265 25997.3 -03499.4 -07.6663 26231.8
 01 11 2013  00 10  -21.0267 25997.3 -03499.4 -07.6664 26231.8
 01 11 2013  00 11  -21.0269 25997.4 -03499.5 -07.6664 26231.9
 01 11 2013  00 12  -21.0270 25997.6 -03499.6 -07.6666 26232.1
 01 11 2013  00 13  -21.0269 25997.7 -03499.6 -07.6667 26232.2
 01 11 2013  00 14  -21.0267 25997.7 -03499.7 -07.6667 26232.2
 01 11 2013  00 15  -21.0264 25997.8 -03499.7 -07.6668 26232.3
 01 11 2013  00 16  -21.0262 25997.8 -03499.8 -07.6669 26232.4
 01 11 2013  00 17  -21.0260 25998.0 -03499.8 -07.6670 26232.5
 01 11 2013  00 18  -21.0259 25998.1 -03499.9 -07.6672 26232.7
 01 11 2013  00 19  -21.0258 25998.3 -03500.1 -07.6674 26232.8
 01 11 2013  00 20  -21.0257 25998.5 -03500.2 -07.6675 26233.1
 01 11 2013  00 21  -21.0256 25998.5 -03500.2 -07.6676 26233.1
 01 11 2013  00 22  -21.0254 25998.8 -03500.3 -07.6677 26233.3
 01 11 2013  00 23  -21.0253 25999.1 -03500.4 -07.6680 26233.7
 01 11 2013  00 24  -21.0254 25999.4 -03500.5 -07.6682 26234.0
 01 11 2013  00 25  -21.0253 25999.5 -03500.6 -07.6683 26234.1
 01 11 2013  00 26  -21.0250 25999.6 -03500.6 -07.6683 26234.2
 01 11 2013  00 27  -21.0244 25999.8 -03500.7 -07.6683 26234.4
 01 11 2013  00 28  -21.0240 25999.8 -03500.7 -07.6684 26234.5
 01 11 2013  00 29  -21.0236 26000.0 -03500.8 -07.6685 26234.6
 01 11 2013  00 30  -21.0233 26000.0 -03500.8 -07.6685 26234.6
 01 11 2013  00 31  -21.0230 26000.1 -03500.9 -07.6686 26234.7
 01 11 2013  00 32  -21.0227 26000.1 -03500.9 -07.6686 26234.8
 01 11 2013  00 33  -21.0223 26000.3 -03500.9 -07.6687 26234.9
 01 11 2013  00 34  -21.0220 26000.3 -03501.0 -07.6689 26235.0
 01 11 2013  00 35  -21.0218 26000.4 -03501.0 -07.6689 26235.0
 01 11 2013  00 36  -21.0216 26000.5 -03501.1 -07.6691 26235.1
 01 11 2013  00 37  -21.0215 26000.5 -03501.2 -07.6692 26235.2
 01 11 2013  00 38  -21.0214 26000.7 -03501.3 -07.6693 26235.3
 01 11 2013  00 39  -21.0214 26000.7 -03501.3 -07.6694 26235.4
 01 11 2013  00 40  -21.0213 26000.7 -03501.3 -07.6694 26235.4
 01 11 2013  00 41  -21.0213 26000.6 -03501.3 -07.6694 26235.3
 01 11 2013  00 42  -21.0211 26000.5 -03501.3 -07.6694 26235.2
 01 11 2013  00 43  -21.0207 26000.3 -03501.2 -07.6692 26235.0
 01 11 2013  00 44  -21.0204 26000.2 -03501.1 -07.6692 26234.9
 01 11 2013  00 45  -21.0205 26000.1 -03501.1 -07.6692 26234.8
 01 11 2013  00 46  -21.0205 26000.0 -03501.1 -07.6693 26234.7
 01 11 2013  00 47  -21.0206 26000.0 -03501.2 -07.6694 26234.6
 01 11 2013  00 48  -21.0206 25999.9 -03501.2 -07.6695 26234.6
 01 11 2013  00 49  -21.0208 25999.9 -03501.3 -07.6696 26234.6
 01 11 2013  00 50  -21.0209 25999.8 -03501.3 -07.6697 26234.5
 01 11 2013  00 51  -21.0210 25999.8 -03501.3 -07.6697 26234.5
 01 11 2013  00 52  -21.0211 25999.8 -03501.4 -07.6698 26234.5
 01 11 2013  00 53  -21.0215 25999.8 -03501.5 -07.6700 26234.5
 01 11 2013  00 54  -21.0218 25999.8 -03501.5 -07.6701 26234.5
 01 11 2013  00 55  -21.0221 25999.9 -03501.6 -07.6702 26234.6
 01 11 2013  00 56  -21.0224 25999.9 -03501.7 -07.6704 26234.7
 01 11 2013  00 57  -21.0227 26000.0 -03501.7 -07.6705 26234.7
 01 11 2013  00 58  -21.0227 25999.9 -03501.7 -07.6704 26234.7
 01 11 2013  00 59  -21.0224 25999.8 -03501.6 -07.6704 26234.6
 01 11 2013  01 00  -21.0221 25999.7 -03501.6 -07.6703 26234.4
 01 11 2013  01 01  -21.0219 25999.6 -03501.6 -07.6703 26234.4
 01 11 2013  01 02  -21.0217 25999.6 -03501.6 -07.6704 26234.3
 01 11 2013  01 03  -21.0216 25999.6 -03501.6 -07.6704 26234.4
 01 11 2013  01 04  -21.0215 25999.7 -03501.7 -07.6706 26234.4
 01 11 2013  01 05  -21.0214 25999.7 -03501.8 -07.6707 26234.5
 01 11 2013  01 06  -21.0216 25999.8 -03501.9 -07.6709 26234.6
 01 11 2013  01 07  -21.0216 25999.9 -03502.0 -07.6711 26234.7
 01 11 2013  01 08  -21.0214 26000.0 -03502.0 -07.6712 26234.8
 01 11 2013  01 09  -21.0212 26000.1 -03502.1 -07.6713 26234.9
 01 11 2013  01 10  -21.0209 26000.1 -03502.1 -07.6714 26234.9
 01 11 2013  01 11  -21.0205 26000.2 -03502.2 -07.6714 26235.0
 01 11 2013  01 12  -21.0204 26000.0 -03502.2 -07.6715 26234.8
 01 11 2013  01 13  -21.0202 26000.0 -03502.2 -07.6715 26234.8
 01 11 2013  01 14  -21.0201 26000.0 -03502.2 -07.6716 26234.8
 01 11 2013  01 15  -21.0203 26000.0 -03502.3 -07.6717 26234.9
 01 11 2013  01 16  -21.0205 26000.0 -03502.3 -07.6718 26234.9
 01 11 2013  01 17  -21.0206 26000.2 -03502.4 -07.6720 26235.0
 01 11 2013  01 18  -21.0208 26000.2 -03502.5 -07.6721 26235.0
 01 11 2013  01 19  -21.0208 26000.3 -03502.5 -07.6722 26235.1
 01 11 2013  01 20  -21.0207 26000.2 -03502.5 -07.6721 26235.0
 01 11 2013  01 21  -21.0204 26000.3 -03502.5 -07.6722 26235.1
 01 11 2013  01 22  -21.0203 26000.3 -03502.6 -07.6722 26235.2
 01 11 2013  01 23  -21.0203 26000.5 -03502.7 -07.6724 26235.4
 01 11 2013  01 24  -21.0204 26000.5 -03502.7 -07.6725 26235.4
 01 11 2013  01 25  -21.0205 26000.6 -03502.7 -07.6725 26235.5
 01 11 2013  01 26  -21.0207 26000.6 -03502.7 -07.6725 26235.4
 01 11 2013  01 27  -21.0208 26000.6 -03502.7 -07.6725 26235.5
 01 11 2013  01 28  -21.0208 26000.6 -03502.7 -07.6725 26235.5
 01 11 2013  01 29  -21.0207 26000.6 -03502.7 -07.6724 26235.4
 01 11 2013  01 30  -21.0206 26000.3 -03502.5 -07.6721 26235.1
 01 11 2013  01 31  -21.0204 26000.2 -03502.4 -07.6720 26235.0
 01 11 2013  01 32  -21.0202 25999.9 -03502.3 -07.6719 26234.8
 01 11 2013  01 33  -21.0200 25999.9 -03502.3 -07.6718 26234.7
 01 11 2013  01 34  -21.0200 25999.8 -03502.3 -07.6718 26234.6
 01 11 2013  01 35  -21.0201 25999.6 -03502.3 -07.6719 26234.5
 01 11 2013  01 36  -21.0203 25999.5 -03502.3 -07.6719 26234.3
 01 11 2013  01 37  -21.0206 25999.4 -03502.3 -07.6719 26234.2
 01 11 2013  01 38  -21.0208 25999.4 -03502.3 -07.6720 26234.2
 01 11 2013  01 39  -21.0208 25999.7 -03502.5 -07.6723 26234.5
 01 11 2013  01 40  -21.0210 25999.7 -03502.5 -07.6724 26234.5
 01 11 2013  01 41  -21.0211 25999.6 -03502.5 -07.6723 26234.4
 01 11 2013  01 42  -21.0210 25999.8 -03502.7 -07.6726 26234.7
 01 11 2013  01 43  -21.0212 25999.8 -03502.7 -07.6726 26234.7
 01 11 2013  01 44  -21.0216 25999.9 -03502.8 -07.6728 26234.8
 01 11 2013  01 45  -21.0218 26000.1 -03502.8 -07.6729 26235.0
 01 11 2013  01 46  -21.0220 25999.9 -03502.7 -07.6728 26234.8
 01 11 2013  01 47  -21.0221 26000.0 -03502.8 -07.6728 26234.9
 01 11 2013  01 48  -21.0222 26000.0 -03502.8 -07.6728 26234.9
 01 11 2013  01 49  -21.0221 26000.0 -03502.7 -07.6728 26234.8
 01 11 2013  01 50  -21.0221 26000.2 -03502.8 -07.6729 26235.1
 01 11 2013  01 51  -21.0223 26000.2 -03502.9 -07.6729 26235.1
 01 11 2013  01 52  -21.0227 26000.2 -03502.9 -07.6730 26235.1
 01 11 2013  01 53  -21.0230 26000.2 -03502.9 -07.6730 26235.1
 01 11 2013  01 54  -21.0231 26000.2 -03502.9 -07.6730 26235.2
 01 11 2013  01 55  -21.0232 26000.4 -03503.0 -07.6731 26235.3
 01 11 2013  01 56  -21.0235 26000.4 -03502.9 -07.6731 26235.3
 01 11 2013  01 57  -21.0236 26000.5 -03503.0 -07.6731 26235.4
 01 11 2013  01 58  -21.0238 26000.6 -03503.1 -07.6732 26235.6
 01 11 2013  01 59  -21.0240 26000.8 -03503.1 -07.6733 26235.7
 01 11 2013  02 00  -21.0242 26000.9 -03503.2 -07.6735 26235.9
 01 11 2013  02 01  -21.0242 26001.4 -03503.4 -07.6738 26236.4
 01 11 2013  02 02  -21.0243 26001.8 -03503.6 -07.6741 26236.8
 01 11 2013  02 03  -21.0241 26002.3 -03503.8 -07.6744 26237.3
 01 11 2013  02 04  -21.0241 26002.9 -03504.1 -07.6748 26237.9
 01 11 2013  02 05  -21.0242 26003.2 -03504.2 -07.6750 26238.2
 01 11 2013  02 06  -21.0242 26003.9 -03504.5 -07.6754 26239.0
 01 11 2013  02 07  -21.0242 26004.4 -03504.7 -07.6757 26239.5
 01 11 2013  02 08  -21.0240 26004.8 -03504.9 -07.6759 26239.9
 01 11 2013  02 09  -21.0241 26005.3 -03505.1 -07.6762 26240.5
 01 11 2013  02 10  -21.0243 26005.8 -03505.2 -07.6764 26240.9
 01 11 2013  02 11  -21.0247 26005.7 -03505.2 -07.6763 26240.9
 01 11 2013  02 12  -21.0246 26006.1 -03505.2 -07.6763 26241.2
 01 11 2013  02 13  -21.0246 26006.5 -03505.3 -07.6764 26241.7
 01 11 2013  02 14  -21.0247 26007.0 -03505.4 -07.6765 26242.1
 01 11 2013  02 15  -21.0250 26007.1 -03505.4 -07.6765 26242.2
 01 11 2013  02 16  -21.0252 26007.2 -03505.4 -07.6764 26242.4
 01 11 2013  02 17  -21.0255 26007.2 -03505.3 -07.6762 26242.4
 01 11 2013  02 18  -21.0256 26007.7 -03505.4 -07.6763 26242.9
 01 11 2013  02 19  -21.0258 26007.7 -03505.4 -07.6761 26242.9
 01 11 2013  02 20  -21.0260 26008.0 -03505.4 -07.6761 26243.2
 01 11 2013  02 21  -21.0261 26008.1 -03505.3 -07.6759 26243.3
 01 11 2013  02 22  -21.0263 26008.1 -03505.2 -07.6757 26243.2
 01 11 2013  02 23  -21.0263 26008.1 -03505.1 -07.6755 26243.2
 01 11 2013  02 24  -21.0263 26007.9 -03504.9 -07.6752 26243.0
 01 11 2013  02 25  -21.0260 26007.6 -03504.7 -07.6747 26242.7
 01 11 2013  02 26  -21.0256 26007.5 -03504.5 -07.6742 26242.6
 01 11 2013  02 27  -21.0254 26007.5 -03504.4 -07.6741 26242.5
 01 11 2013  02 28  -21.0253 26007.4 -03504.3 -07.6740 26242.4
 01 11 2013  02 29  -21.0251 26007.2 -03504.2 -07.6738 26242.3
 01 11 2013  02 30  -21.0248 26007.4 -03504.3 -07.6738 26242.4
 01 11 2013  02 31  -21.0244 26007.5 -03504.3 -07.6738 26242.5
 01 11 2013  02 32  -21.0240 26007.5 -03504.3 -07.6738 26242.5
 01 11 2013  02 33  -21.0239 26007.5 -03504.3 -07.6738 26242.5
 01 11 2013  02 34  -21.0238 26007.5 -03504.2 -07.6737 26242.5
 01 11 2013  02 35  -21.0236 26007.5 -03504.2 -07.6737 26242.5
 01 11 2013  02 36  -21.0235 26007.2 -03504.0 -07.6734 26242.1
 01 11 2013  02 37  -21.0236 26006.9 -03503.8 -07.6731 26241.9
 01 11 2013  02 38  -21.0237 26006.7 -03503.8 -07.6729 26241.7
 01 11 2013  02 39  -21.0237 26006.4 -03503.6 -07.6726 26241.4
 01 11 2013  02 40  -21.0235 26006.0 -03503.4 -07.6723 26241.0
 01 11 2013  02 41  -21.0234 26005.9 -03503.2 -07.6721 26240.8
 01 11 2013  02 42  -21.0236 26005.7 -03503.2 -07.6720 26240.6
 01 11 2013  02 43  -21.0239 26005.6 -03503.2 -07.6720 26240.5
 01 11 2013  02 44  -21.0241 26005.3 -03503.0 -07.6717 26240.1
 01 11 2013  02 45  -21.0242 26005.2 -03503.0 -07.6717 26240.1
 01 11 2013  02 46  -21.0242 26005.2 -03502.9 -07.6716 26240.0
 01 11 2013  02 47  -21.0245 26005.1 -03502.9 -07.6716 26240.0
 01 11 2013  02 48  -21.0246 26005.0 -03502.9 -07.6715 26239.9
 01 11 2013  02 49  -21.0244 26005.0 -03502.8 -07.6714 26239.8
 01 11 2013  02 50  -21.0240 26004.9 -03502.7 -07.6712 26239.8
 01 11 2013  02 51  -21.0234 26004.9 -03502.7 -07.6711 26239.7
 01 11 2013  02 52  -21.0227 26004.8 -03502.6 -07.6710 26239.6
 01 11 2013  02 53  -21.0217 26004.6 -03502.5 -07.6708 26239.4
 01 11 2013  02 54  -21.0205 26004.5 -03502.4 -07.6706 26239.3
 01 11 2013  02 55  -21.0194 26004.4 -03502.3 -07.6706 26239.1
 01 11 2013  02 56  -21.0185 26004.1 -03502.3 -07.6706 26238.9
 01 11 2013  02 57  -21.0177 26003.9 -03502.2 -07.6705 26238.7
 01 11 2013  02 58  -21.0172 26003.9 -03502.3 -07.6706 26238.7
 01 11 2013  02 59  -21.0168 26003.9 -03502.4 -07.6708 26238.7
 01 11 2013  03 00  -21.0165 26003.8 -03502.4 -07.6709 26238.7
 01 11 2013  03 01  -21.0165 26003.6 -03502.4 -07.6709 26238.4
 01 11 2013  03 02  -21.0166 26003.5 -03502.4 -07.6710 26238.3
 01 11 2013  03 03  -21.0165 26003.5 -03502.4 -07.6710 26238.3
 01 11 2013  03 04  -21.0164 26003.6 -03502.5 -07.6712 26238.4
 01 11 2013  03 05  -21.0167 26003.7 -03502.7 -07.6715 26238.5
 01 11 2013  03 06  -21.0172 26003.6 -03502.7 -07.6715 26238.4
 01 11 2013  03 07  -21.0175 26003.3 -03502.5 -07.6713 26238.1
 01 11 2013  03 08  -21.0177 26003.1 -03502.4 -07.6711 26237.9
 01 11 2013  03 09  -21.0179 26003.0 -03502.4 -07.6710 26237.8
 01 11 2013  03 10  -21.0184 26003.1 -03502.4 -07.6711 26237.9
 01 11 2013  03 11  -21.0185 26003.1 -03502.4 -07.6711 26237.9
 01 11 2013  03 12  -21.0185 26003.1 -03502.4 -07.6712 26238.0
 01 11 2013  03 13  -21.0185 26002.9 -03502.3 -07.6710 26237.7
 01 11 2013  03 14  -21.0188 26002.7 -03502.2 -07.6709 26237.5
 01 11 2013  03 15  -21.0191 26002.6 -03502.2 -07.6708 26237.4
 01 11 2013  03 16  -21.0194 26002.7 -03502.3 -07.6709 26237.5
 01 11 2013  03 17  -21.0196 26002.7 -03502.3 -07.6709 26237.5
 01 11 2013  03 18  -21.0196 26002.7 -03502.2 -07.6708 26237.5
 01 11 2013  03 19  -21.0197 26002.7 -03502.2 -07.6708 26237.5
 01 11 2013  03 20  -21.0196 26002.7 -03502.2 -07.6708 26237.5
 01 11 2013  03 21  -21.0195 26002.7 -03502.2 -07.6708 26237.5
 01 11 2013  03 22  -21.0195 26002.6 -03502.2 -07.6707 26237.4
 01 11 2013  03 23  -21.0193 26002.6 -03502.1 -07.6706 26237.4
 01 11 2013  03 24  -21.0192 26002.5 -03502.1 -07.6707 26237.3
 01 11 2013  03 25  -21.0191 26002.6 -03502.1 -07.6707 26237.4
 01 11 2013  03 26  -21.0191 26002.6 -03502.2 -07.6708 26237.4
 01 11 2013  03 27  -21.0190 26002.7 -03502.2 -07.6708 26237.5
 01 11 2013  03 28  -21.0189 26002.6 -03502.2 -07.6707 26237.4
 01 11 2013  03 29  -21.0189 26002.7 -03502.2 -07.6708 26237.5
 01 11 2013  03 30  -21.0188 26002.9 -03502.3 -07.6710 26237.7
 01 11 2013  03 31  -21.0187 26003.1 -03502.4 -07.6711 26237.9
 01 11 2013  03 32  -21.0185 26003.2 -03502.5 -07.6712 26238.0
 01 11 2013  03 33  -21.0181 26003.3 -03502.5 -07.6713 26238.1
 01 11 2013  03 34  -21.0177 26003.4 -03502.6 -07.6713 26238.3
 01 11 2013  03 35  -21.0171 26003.6 -03502.6 -07.6714 26238.4
 01 11 2013  03 36  -21.0165 26003.7 -03502.7 -07.6715 26238.5
 01 11 2013  03 37  -21.0161 26003.7 -03502.6 -07.6714 26238.5
 01 11 2013  03 38  -21.0159 26003.5 -03502.6 -07.6714 26238.4
 01 11 2013  03 39  -21.0158 26003.4 -03502.6 -07.6713 26238.3
 01 11 2013  03 40  -21.0158 26003.5 -03502.6 -07.6714 26238.4
 01 11 2013  03 41  -21.0154 26003.2 -03502.5 -07.6713 26238.0
 01 11 2013  03 42  -21.0151 26002.5 -03502.2 -07.6707 26237.3
 01 11 2013  03 43  -21.0152 26001.8 -03501.9 -07.6703 26236.6
 01 11 2013  03 44  -21.0158 26001.4 -03501.7 -07.6701 26236.2
 01 11 2013  03 45  -21.0162 26001.3 -03501.7 -07.6700 26236.0
 01 11 2013  03 46  -21.0166 26001.2 -03501.7 -07.6702 26235.9
 01 11 2013  03 47  -21.0170 26001.1 -03501.7 -07.6702 26235.8
 01 11 2013  03 48  -21.0173 26001.1 -03501.8 -07.6703 26235.9
 01 11 2013  03 49  -21.0174 26001.0 -03501.8 -07.6704 26235.8
 01 11 2013  03 50  -21.0173 26001.2 -03501.9 -07.6705 26236.0
 01 11 2013  03 51  -21.0173 26001.6 -03502.2 -07.6710 26236.4
 01 11 2013  03 52  -21.0172 26002.1 -03502.5 -07.6715 26236.9
 01 11 2013  03 53  -21.0171 26002.5 -03502.7 -07.6719 26237.3
 01 11 2013  03 54  -21.0169 26002.8 -03502.9 -07.6722 26237.7
 01 11 2013  03 55  -21.0169 26002.7 -03502.8 -07.6721 26237.6
 01 11 2013  03 56  -21.0170 26002.3 -03502.6 -07.6718 26237.2
 01 11 2013  03 57  -21.0170 26001.9 -03502.4 -07.6715 26236.7
 01 11 2013  03 58  -21.0174 26001.9 -03502.4 -07.6714 26236.7
 01 11 2013  03 59  -21.0178 26002.0 -03502.5 -07.6716 26236.8
 01 11 2013  04 00  -21.0177 26002.1 -03502.5 -07.6717 26236.9
 01 11 2013  04 01  -21.0176 26002.0 -03502.5 -07.6716 26236.8
 01 11 2013  04 02  -21.0176 26001.9 -03502.5 -07.6716 26236.7
 01 11 2013  04 03  -21.0178 26001.8 -03502.5 -07.6716 26236.7
 01 11 2013  04 04  -21.0181 26001.8 -03502.5 -07.6716 26236.6
 01 11 2013  04 05  -21.0185 26001.7 -03502.5 -07.6716 26236.6
 01 11 2013  04 06  -21.0190 26001.7 -03502.5 -07.6716 26236.5
 01 11 2013  04 07  -21.0193 26001.6 -03502.5 -07.6716 26236.5
 01 11 2013  04 08  -21.0194 26001.6 -03502.4 -07.6715 26236.4
 01 11 2013  04 09  -21.0195 26001.5 -03502.3 -07.6714 26236.3
 01 11 2013  04 10  -21.0196 26001.4 -03502.3 -07.6714 26236.2
 01 11 2013  04 11  -21.0196 26001.5 -03502.3 -07.6714 26236.3
 01 11 2013  04 12  -21.0197 26001.6 -03502.4 -07.6715 26236.4
 01 11 2013  04 13  -21.0198 26001.6 -03502.4 -07.6715 26236.4
 01 11 2013  04 14  -21.0196 26001.7 -03502.5 -07.6716 26236.5
 01 11 2013  04 15  -21.0196 26001.5 -03502.4 -07.6716 26236.4
 01 11 2013  04 16  -21.0195 26001.6 -03502.5 -07.6716 26236.4
 01 11 2013  04 17  -21.0195 26001.8 -03502.5 -07.6717 26236.6
 01 11 2013  04 18  -21.0196 26001.9 -03502.6 -07.6719 26236.7
 01 11 2013  04 19  -21.0197 26002.0 -03502.7 -07.6720 26236.9
 01 11 2013  04 20  -21.0199 26002.1 -03502.8 -07.6721 26237.0
 01 11 2013  04 21  -21.0201 26002.2 -03502.8 -07.6722 26237.1
 01 11 2013  04 22  -21.0203 26002.3 -03502.8 -07.6723 26237.2
 01 11 2013  04 23  -21.0204 26002.2 -03502.8 -07.6722 26237.1
 01 11 2013  04 24  -21.0202 26002.3 -03502.8 -07.6721 26237.2
 01 11 2013  04 25  -21.0200 26002.2 -03502.7 -07.6720 26237.0
 01 11 2013  04 26  -21.0198 26002.1 -03502.6 -07.6719 26237.0
 01 11 2013  04 27  -21.0196 26002.0 -03502.6 -07.6718 26236.9
 01 11 2013  04 28  -21.0194 26001.9 -03502.6 -07.6718 26236.8
 01 11 2013  04 29  -21.0195 26001.9 -03502.6 -07.6719 26236.8
 01 11 2013  04 30  -21.0195 26001.9 -03502.6 -07.6719 26236.7
 01 11 2013  04 31  -21.0195 26001.9 -03502.7 -07.6720 26236.8
 01 11 2013  04 32  -21.0196 26002.0 -03502.7 -07.6721 26236.9
 01 11 2013  04 33  -21.0196 26002.1 -03502.8 -07.6722 26237.0
 01 11 2013  04 34  -21.0196 26002.2 -03502.9 -07.6723 26237.1
 01 11 2013  04 35  -21.0194 26002.2 -03502.8 -07.6723 26237.0
 01 11 2013  04 36  -21.0195 26002.2 -03502.9 -07.6723 26237.1
 01 11 2013  04 37  -21.0197 26002.2 -03502.9 -07.6724 26237.0
 01 11 2013  04 38  -21.0195 26002.1 -03502.8 -07.6723 26237.0
 01 11 2013  04 39  -21.0193 26002.0 -03502.8 -07.6722 26236.9
 01 11 2013  04 40  -21.0193 26002.1 -03502.8 -07.6722 26237.0
 01 11 2013  04 41  -21.0193 26002.2 -03502.9 -07.6724 26237.1
 01 11 2013  04 42  -21.0195 26002.3 -03503.0 -07.6726 26237.2
 01 11 2013  04 43  -21.0196 26002.4 -03503.1 -07.6727 26237.3
 01 11 2013  04 44  -21.0195 26002.5 -03503.1 -07.6727 26237.4
 01 11 2013  04 45  -21.0197 26002.5 -03503.1 -07.6728 26237.4
 01 11 2013  04 46  -21.0199 26002.6 -03503.2 -07.6729 26237.5
 01 11 2013  04 47  -21.0202 26002.6 -03503.2 -07.6729 26237.5
 01 11 2013  04 48  -21.0206 26002.7 -03503.2 -07.6730 26237.6
 01 11 2013  04 49  -21.0210 26002.7 -03503.3 -07.6730 26237.7
 01 11 2013  04 50  -21.0213 26002.7 -03503.2 -07.6730 26237.7
 01 11 2013  04 51  -21.0216 26002.7 -03503.2 -07.6729 26237.7
 01 11 2013  04 52  -21.0217 26002.7 -03503.2 -07.6728 26237.6
 01 11 2013  04 53  -21.0217 26002.6 -03503.1 -07.6726 26237.5
 01 11 2013  04 54  -21.0215 26002.5 -03503.0 -07.6726 26237.4
 01 11 2013  04 55  -21.0214 26002.5 -03503.0 -07.6725 26237.4
 01 11 2013  04 56  -21.0213 26002.5 -03503.0 -07.6725 26237.4
 01 11 2013  04 57  -21.0211 26002.5 -03503.0 -07.6725 26237.4
 01 11 2013  04 58  -21.0209 26002.5 -03503.0 -07.6725 26237.4
 01 11 2013  04 59  -21.0206 26002.5 -03503.0 -07.6725 26237.4
 01 11 2013  05 00  -21.0204 26002.5 -03503.0 -07.6726 26237.4
 01 11 2013  05 01  -21.0202 26002.6 -03503.1 -07.6727 26237.5
 01 11 2013  05 02  -21.0200 26002.6 -03503.1 -07.6728 26237.5
 01 11 2013  05 03  -21.0200 26002.7 -03503.2 -07.6730 26237.6
 01 11 2013  05 04  -21.0203 26002.9 -03503.3 -07.6731 26237.8
 01 11 2013  05 05  -21.0203 26003.0 -03503.4 -07.6733 26237.9
 01 11 2013  05 06  -21.0203 26003.0 -03503.4 -07.6734 26238.0
 01 11 2013  05 07  -21.0204 26003.0 -03503.5 -07.6734 26238.0
 01 11 2013  05 08  -21.0204 26003.0 -03503.4 -07.6733 26237.9
 01 11 2013  05 09  -21.0205 26002.9 -03503.4 -07.6733 26237.8
 01 11 2013  05 10  -21.0206 26003.0 -03503.4 -07.6733 26237.9
 01 11 2013  05 11  -21.0207 26003.0 -03503.4 -07.6733 26237.9
 01 11 2013  05 12  -21.0206 26003.0 -03503.5 -07.6734 26238.0
 01 11 2013  05 13  -21.0204 26003.0 -03503.4 -07.6734 26238.0
 01 11 2013  05 14  -21.0203 26003.0 -03503.4 -07.6734 26237.9
 01 11 2013  05 15  -21.0202 26003.0 -03503.5 -07.6734 26238.0
 01 11 2013  05 16  -21.0202 26003.0 -03503.5 -07.6735 26238.0
 01 11 2013  05 17  -21.0201 26003.0 -03503.5 -07.6734 26237.9
 01 11 2013  05 18  -21.0201 26002.9 -03503.5 -07.6734 26237.9
 01 11 2013  05 19  -21.0203 26002.9 -03503.5 -07.6734 26237.9
 01 11 2013  05 20  -21.0209 26002.8 -03503.5 -07.6735 26237.8
 01 11 2013  05 21  -21.0214 26002.8 -03503.5 -07.6735 26237.8
 01 11 2013  05 22  -21.0219 26002.9 -03503.5 -07.6736 26237.9
 01 11 2013  05 23  -21.0225 26003.0 -03503.6 -07.6736 26238.0
 01 11 2013  05 24  -21.0229 26003.0 -03503.5 -07.6736 26238.0
 01 11 2013  05 25  -21.0235 26003.0 -03503.5 -07.6735 26238.0
 01 11 2013  05 26  -21.0237 26003.0 -03503.5 -07.6734 26238.0
 01 11 2013  05 27  -21.0236 26003.1 -03503.4 -07.6733 26238.0
 01 11 2013  05 28  -21.0236 26002.9 -03503.3 -07.6732 26237.9
 01 11 2013  05 29  -21.0231 26002.9 -03503.2 -07.6730 26237.8
 01 11 2013  05 30  -21.0227 26002.7 -03503.1 -07.6727 26237.6
 01 11 2013  05 31  -21.0223 26002.6 -03503.1 -07.6726 26237.5
 01 11 2013  05 32  -21.0221 26002.6 -03503.0 -07.6725 26237.5
 01 11 2013  05 33  -21.0222 26002.6 -03503.1 -07.6727 26237.5
 01 11 2013  05 34  -21.0221 26002.5 -03503.0 -07.6726 26237.4
 01 11 2013  05 35  -21.0220 26002.5 -03503.0 -07.6726 26237.3
 01 11 2013  05 36  -21.0218 26002.4 -03503.0 -07.6726 26237.3
 01 11 2013  05 37  -21.0217 26002.5 -03503.0 -07.6726 26237.4
 01 11 2013  05 38  -21.0215 26002.5 -03503.0 -07.6726 26237.4
 01 11 2013  05 39  -21.0212 26002.4 -03503.0 -07.6726 26237.3
 01 11 2013  05 40  -21.0209 26002.4 -03503.0 -07.6725 26237.3
 01 11 2013  05 41  -21.0207 26002.4 -03503.0 -07.6725 26237.3
 01 11 2013  05 42  -21.0207 26002.4 -03503.0 -07.6727 26237.3
 01 11 2013  05 43  -21.0209 26002.5 -03503.1 -07.6727 26237.4
 01 11 2013  05 44  -21.0209 26002.5 -03503.1 -07.6727 26237.4
 01 11 2013  05 45  -21.0211 26002.5 -03503.1 -07.6727 26237.4
 01 11 2013  05 46  -21.0212 26002.6 -03503.1 -07.6728 26237.5
 01 11 2013  05 47  -21.0215 26002.8 -03503.2 -07.6728 26237.7
 01 11 2013  05 48  -21.0220 26003.0 -03503.3 -07.6731 26238.0
 01 11 2013  05 49  -21.0225 26003.2 -03503.4 -07.6732 26238.1
 01 11 2013  05 50  -21.0227 26003.2 -03503.4 -07.6731 26238.2
 01 11 2013  05 51  -21.0226 26003.2 -03503.3 -07.6730 26238.1
 01 11 2013  05 52  -21.0227 26003.1 -03503.2 -07.6728 26238.1
 01 11 2013  05 53  -21.0227 26003.0 -03503.1 -07.6727 26237.9
 01 11 2013  05 54  -21.0227 26003.0 -03503.1 -07.6726 26237.9
 01 11 2013  05 55  -21.0228 26003.0 -03503.0 -07.6725 26237.9
 01 11 2013  05 56  -21.0229 26003.0 -03503.0 -07.6724 26237.8
 01 11 2013  05 57  -21.0227 26002.9 -03502.9 -07.6722 26237.7
 01 11 2013  05 58  -21.0224 26002.8 -03502.9 -07.6722 26237.7
 01 11 2013  05 59  -21.0220 26002.8 -03502.8 -07.6721 26237.6
 01 11 2013  06 00  -21.0216 26002.7 -03502.8 -07.6720 26237.5
 01 11 2013  06 01  -21.0215 26002.7 -03502.7 -07.6720 26237.5
 01 11 2013  06 02  -21.0217 26002.7 -03502.8 -07.6720 26237.6
 01 11 2013  06 03  -21.0222 26002.7 -03502.8 -07.6721 26237.6
 01 11 2013  06 04  -21.0225 26002.8 -03502.9 -07.6722 26237.6
 01 11 2013  06 05  -21.0228 26002.8 -03502.9 -07.6722 26237.7
 01 11 2013  06 06  -21.0229 26002.9 -03502.9 -07.6722 26237.7
 01 11 2013  06 07  -21.0229 26002.9 -03502.9 -07.6722 26237.8
 01 11 2013  06 08  -21.0228 26002.9 -03502.9 -07.6721 26237.8
 01 11 2013  06 09  -21.0225 26002.9 -03502.8 -07.6720 26237.8
 01 11 2013  06 10  -21.0223 26002.9 -03502.8 -07.6720 26237.8
 01 11 2013  06 11  -21.0221 26002.9 -03502.8 -07.6720 26237.8
 01 11 2013  06 12  -21.0220 26003.0 -03502.8 -07.6720 26237.8
 01 11 2013  06 13  -21.0217 26003.0 -03502.8 -07.6719 26237.9
 01 11 2013  06 14  -21.0216 26003.1 -03502.8 -07.6720 26237.9
 01 11 2013  06 15  -21.0216 26003.1 -03502.9 -07.6721 26238.0
 01 11 2013  06 16  -21.0215 26003.2 -03502.9 -07.6722 26238.1
 01 11 2013  06 17  -21.0214 26003.3 -03503.0 -07.6723 26238.2
 01 11 2013  06 18  -21.0212 26003.5 -03503.0 -07.6723 26238.4
 01 11 2013  06 19  -21.0214 26003.6 -03503.1 -07.6725 26238.5
 01 11 2013  06 20  -21.0217 26003.8 -03503.2 -07.6725 26238.7
 01 11 2013  06 21  -21.0220 26004.0 -03503.3 -07.6727 26238.9
 01 11 2013  06 22  -21.0225 26004.1 -03503.4 -07.6728 26239.1
 01 11 2013  06 23  -21.0230 26004.2 -03503.4 -07.6729 26239.1
 01 11 2013  06 24  -21.0233 26004.3 -03503.4 -07.6728 26239.3
 01 11 2013  06 25  -21.0233 26004.4 -03503.3 -07.6727 26239.3
 01 11 2013  06 26  -21.0233 26004.4 -03503.3 -07.6726 26239.3
 01 11 2013  06 27  -21.0235 26004.4 -03503.3 -07.6725 26239.3
 01 11 2013  06 28  -21.0236 26004.5 -03503.3 -07.6725 26239.4
 01 11 2013  06 29  -21.0237 26004.5 -03503.2 -07.6724 26239.4
 01 11 2013  06 30  -21.0235 26004.5 -03503.1 -07.6723 26239.4
 01 11 2013  06 31  -21.0235 26004.5 -03503.1 -07.6722 26239.4
 01 11 2013  06 32  -21.0234 26004.6 -03503.1 -07.6722 26239.5
 01 11 2013  06 33  -21.0233 26004.6 -03503.1 -07.6721 26239.5
 01 11 2013  06 34  -21.0232 26004.7 -03503.1 -07.6721 26239.6
 01 11 2013  06 35  -21.0230 26004.7 -03503.1 -07.6721 26239.6
 01 11 2013  06 36  -21.0229 26004.8 -03503.1 -07.6720 26239.7
 01 11 2013  06 37  -21.0227 26004.9 -03503.1 -07.6721 26239.8
 01 11 2013  06 38  -21.0226 26005.0 -03503.1 -07.6721 26239.9
 01 11 2013  06 39  -21.0226 26005.0 -03503.1 -07.6721 26239.9
 01 11 2013  06 40  -21.0225 26005.0 -03503.1 -07.6721 26239.9
 01 11 2013  06 41  -21.0223 26005.1 -03503.1 -07.6721 26240.0
 01 11 2013  06 42  -21.0222 26005.1 -03503.1 -07.6721 26240.0
 01 11 2013  06 43  -21.0220 26005.1 -03503.1 -07.6721 26240.0
 01 11 2013  06 44  -21.0217 26005.0 -03503.0 -07.6719 26239.9
 01 11 2013  06 45  -21.0211 26004.9 -03502.9 -07.6717 26239.8
 01 11 2013  06 46  -21.0206 26004.8 -03502.9 -07.6716 26239.6
 01 11 2013  06 47  -21.0199 26004.6 -03502.8 -07.6715 26239.5
 01 11 2013  06 48  -21.0194 26004.5 -03502.8 -07.6715 26239.4
 01 11 2013  06 49  -21.0189 26004.5 -03502.8 -07.6716 26239.3
 01 11 2013  06 50  -21.0185 26004.5 -03502.8 -07.6716 26239.3
 01 11 2013  06 51  -21.0184 26004.4 -03502.8 -07.6716 26239.2
 01 11 2013  06 52  -21.0182 26004.4 -03502.9 -07.6717 26239.2
 01 11 2013  06 53  -21.0179 26004.3 -03502.9 -07.6718 26239.2
 01 11 2013  06 54  -21.0179 26004.4 -03502.9 -07.6718 26239.3
 01 11 2013  06 55  -21.0179 26004.4 -03503.0 -07.6720 26239.3
 01 11 2013  06 56  -21.0178 26004.4 -03503.0 -07.6721 26239.3
 01 11 2013  06 57  -21.0176 26004.3 -03503.0 -07.6720 26239.2
 01 11 2013  06 58  -21.0175 26004.3 -03503.0 -07.6720 26239.1
 01 11 2013  06 59  -21.0176 26004.2 -03503.0 -07.6720 26239.1
 01 11 2013  07 00  -21.0174 26004.1 -03503.0 -07.6720 26239.0
 01 11 2013  07 01  -21.0171 26004.0 -03502.9 -07.6720 26238.9
 01 11 2013  07 02  -21.0169 26004.0 -03503.0 -07.6720 26238.9
 01 11 2013  07 03  -21.0167 26004.1 -03503.0 -07.6721 26239.0
 01 11 2013  07 04  -21.0167 26004.1 -03503.1 -07.6723 26239.0
 01 11 2013  07 05  -21.0167 26004.2 -03503.2 -07.6724 26239.1
 01 11 2013  07 06  -21.0166 26004.2 -03503.2 -07.6725 26239.1
 01 11 2013  07 07  -21.0167 26004.2 -03503.2 -07.6726 26239.2
 01 11 2013  07 08  -21.0168 26004.2 -03503.3 -07.6726 26239.1
 01 11 2013  07 09  -21.0169 26004.2 -03503.3 -07.6726 26239.1
 01 11 2013  07 10  -21.0170 26004.2 -03503.3 -07.6727 26239.2
 01 11 2013  07 11  -21.0170 26004.3 -03503.4 -07.6728 26239.2
 01 11 2013  07 12  -21.0170 26004.2 -03503.4 -07.6728 26239.2
 01 11 2013  07 13  -21.0166 26004.2 -03503.3 -07.6728 26239.1
 01 11 2013  07 14  -21.0164 26004.1 -03503.4 -07.6729 26239.1
 01 11 2013  07 15  -21.0164 26004.3 -03503.5 -07.6730 26239.2
 01 11 2013  07 16  -21.0165 26004.3 -03503.6 -07.6732 26239.3
 01 11 2013  07 17  -21.0166 26004.3 -03503.6 -07.6734 26239.3
 01 11 2013  07 18  -21.0166 26004.4 -03503.7 -07.6735 26239.3
 01 11 2013  07 19  -21.0165 26004.3 -03503.7 -07.6735 26239.2
 01 11 2013  07 20  -21.0165 26004.3 -03503.7 -07.6735 26239.2
 01 11 2013  07 21  -21.0164 26004.3 -03503.7 -07.6736 26239.3
 01 11 2013  07 22  -21.0163 26004.2 -03503.7 -07.6735 26239.2
 01 11 2013  07 23  -21.0163 26004.0 -03503.6 -07.6735 26239.0
 01 11 2013  07 24  -21.0164 26003.9 -03503.6 -07.6735 26238.8
 01 11 2013  07 25  -21.0167 26003.9 -03503.7 -07.6736 26238.8
 01 11 2013  07 26  -21.0169 26003.9 -03503.7 -07.6737 26238.9
 01 11 2013  07 27  -21.0172 26004.0 -03503.8 -07.6739 26238.9
 01 11 2013  07 28  -21.0174 26003.9 -03503.8 -07.6739 26238.9
 01 11 2013  07 29  -21.0175 26003.8 -03503.8 -07.6739 26238.8
 01 11 2013  07 30  -21.0174 26003.7 -03503.8 -07.6739 26238.7
 01 11 2013  07 31  -21.0174 26003.7 -03503.8 -07.6740 26238.7
 01 11 2013  07 32  -21.0174 26003.7 -03503.9 -07.6741 26238.7
 01 11 2013  07 33  -21.0173 26003.7 -03503.9 -07.6742 26238.7
 01 11 2013  07 34  -21.0171 26003.7 -03503.9 -07.6742 26238.7
 01 11 2013  07 35  -21.0170 26003.7 -03503.9 -07.6742 26238.7
 01 11 2013  07 36  -21.0168 26003.6 -03503.9 -07.6743 26238.6
 01 11 2013  07 37  -21.0166 26003.5 -03503.9 -07.6743 26238.5
 01 11 2013  07 38  -21.0164 26003.4 -03504.0 -07.6744 26238.4
 01 11 2013  07 39  -21.0161 26003.3 -03504.0 -07.6745 26238.4
 01 11 2013  07 40  -21.0158 26003.3 -03504.1 -07.6746 26238.3
 01 11 2013  07 41  -21.0158 26003.3 -03504.1 -07.6747 26238.3
 01 11 2013  07 42  -21.0160 26003.3 -03504.2 -07.6750 26238.3
 01 11 2013  07 43  -21.0162 26003.3 -03504.3 -07.6751 26238.4
 01 11 2013  07 44  -21.0164 26003.3 -03504.4 -07.6753 26238.3
 01 11 2013  07 45  -21.0166 26003.2 -03504.4 -07.6753 26238.3
 01 11 2013  07 46  -21.0168 26003.3 -03504.5 -07.6755 26238.4
 01 11 2013  07 47  -21.0170 26003.4 -03504.6 -07.6757 26238.4
 01 11 2013  07 48  -21.0170 26003.4 -03504.6 -07.6758 26238.5
 01 11 2013  07 49  -21.0170 26003.4 -03504.6 -07.6758 26238.5
 01 11 2013  07 50  -21.0171 26003.4 -03504.7 -07.6759 26238.5
 01 11 2013  07 51  -21.0172 26003.4 -03504.7 -07.6760 26238.6
 01 11 2013  07 52  -21.0174 26003.4 -03504.7 -07.6760 26238.5
 01 11 2013  07 53  -21.0178 26003.4 -03504.8 -07.6762 26238.5
 01 11 2013  07 54  -21.0183 26003.3 -03504.8 -07.6762 26238.4
 01 11 2013  07 55  -21.0186 26003.2 -03504.8 -07.6762 26238.3
 01 11 2013  07 56  -21.0188 26003.1 -03504.7 -07.6761 26238.2
 01 11 2013  07 57  -21.0190 26003.0 -03504.7 -07.6760 26238.1
 01 11 2013  07 58  -21.0195 26003.0 -03504.7 -07.6761 26238.1
 01 11 2013  07 59  -21.0199 26003.1 -03504.8 -07.6762 26238.2
 01 11 2013  08 00  -21.0203 26003.1 -03504.8 -07.6763 26238.2
 01 11 2013  08 01  -21.0207 26003.0 -03504.8 -07.6762 26238.2
 01 11 2013  08 02  -21.0212 26003.1 -03504.8 -07.6763 26238.2
 01 11 2013  08 03  -21.0215 26002.9 -03504.7 -07.6761 26238.0
 01 11 2013  08 04  -21.0219 26002.8 -03504.6 -07.6759 26237.9
 01 11 2013  08 05  -21.0220 26002.8 -03504.6 -07.6759 26237.9
 01 11 2013  08 06  -21.0224 26002.7 -03504.5 -07.6757 26237.8
 01 11 2013  08 07  -21.0226 26002.6 -03504.5 -07.6757 26237.7
 01 11 2013  08 08  -21.0229 26002.5 -03504.4 -07.6756 26237.6
 01 11 2013  08 09  -21.0230 26002.5 -03504.4 -07.6755 26237.6
 01 11 2013  08 10  -21.0232 26002.5 -03504.3 -07.6754 26237.6
 01 11 2013  08 11  -21.0233 26002.5 -03504.3 -07.6754 26237.6
 01 11 2013  08 12  -21.0236 26002.5 -03504.3 -07.6754 26237.6
 01 11 2013  08 13  -21.0238 26002.5 -03504.3 -07.6754 26237.6
 01 11 2013  08 14  -21.0240 26002.5 -03504.3 -07.6753 26237.6
 01 11 2013  08 15  -21.0241 26002.5 -03504.2 -07.6751 26237.6
 01 11 2013  08 16  -21.0242 26002.5 -03504.1 -07.6750 26237.6
 01 11 2013  08 17  -21.0244 26002.6 -03504.1 -07.6750 26237.6
 01 11 2013  08 18  -21.0242 26002.7 -03504.2 -07.6750 26237.8
 01 11 2013  08 19  -21.0242 26002.9 -03504.2 -07.6750 26238.0
 01 11 2013  08 20  -21.0243 26003.0 -03504.2 -07.6750 26238.0
 01 11 2013  08 21  -21.0242 26003.0 -03504.2 -07.6750 26238.1
 01 11 2013  08 22  -21.0240 26003.1 -03504.1 -07.6748 26238.1
 01 11 2013  08 23  -21.0233 26003.1 -03504.0 -07.6746 26238.1
 01 11 2013  08 24  -21.0227 26003.0 -03503.9 -07.6744 26238.0
 01 11 2013  08 25  -21.0220 26003.0 -03503.9 -07.6743 26238.0
 01 11 2013  08 26  -21.0213 26002.9 -03503.8 -07.6742 26237.9
 01 11 2013  08 27  -21.0206 26002.9 -03503.8 -07.6742 26237.9
 01 11 2013  08 28  -21.0198 26003.0 -03503.9 -07.6743 26238.0
 01 11 2013  08 29  -21.0193 26003.0 -03503.9 -07.6744 26238.0
 01 11 2013  08 30  -21.0185 26002.7 -03503.9 -07.6744 26237.7
 01 11 2013  08 31  -21.0178 26002.5 -03503.8 -07.6743 26237.5
 01 11 2013  08 32  -21.0173 26002.4 -03503.9 -07.6745 26237.4
 01 11 2013  08 33  -21.0169 26002.5 -03504.1 -07.6748 26237.5
 01 11 2013  08 34  -21.0165 26002.5 -03504.2 -07.6752 26237.5
 01 11 2013  08 35  -21.0163 26002.5 -03504.4 -07.6756 26237.6
 01 11 2013  08 36  -21.0163 26002.6 -03504.6 -07.6761 26237.8
 01 11 2013  08 37  -21.0165 26002.8 -03504.9 -07.6765 26237.9
 01 11 2013  08 38  -21.0168 26002.9 -03505.1 -07.6770 26238.1
 01 11 2013  08 39  -21.0171 26003.1 -03505.3 -07.6774 26238.3
 01 11 2013  08 40  -21.0175 26003.2 -03505.5 -07.6777 26238.4
 01 11 2013  08 41  -21.0181 26003.3 -03505.6 -07.6780 26238.6
 01 11 2013  08 42  -21.0185 26003.5 -03505.8 -07.6783 26238.7
 01 11 2013  08 43  -21.0189 26003.4 -03506.0 -07.6787 26238.7
 01 11 2013  08 44  -21.0192 26003.4 -03506.0 -07.6789 26238.7
 01 11 2013  08 45  -21.0198 26003.4 -03506.1 -07.6791 26238.7
 01 11 2013  08 46  -21.0203 26003.5 -03506.3 -07.6794 26238.9
 01 11 2013  08 47  -21.0207 26003.5 -03506.4 -07.6796 26238.9
 01 11 2013  08 48  -21.0209 26003.5 -03506.5 -07.6798 26238.9
 01 11 2013  08 49  -21.0211 26003.6 -03506.6 -07.6800 26238.9
 01 11 2013  08 50  -21.0209 26003.6 -03506.7 -07.6802 26239.0
 01 11 2013  08 51  -21.0209 26003.7 -03506.8 -07.6804 26239.1
 01 11 2013  08 52  -21.0212 26003.8 -03506.9 -07.6807 26239.2
 01 11 2013  08 53  -21.0216 26004.3 -03507.3 -07.6813 26239.8
 01 11 2013  08 54  -21.0217 26004.7 -03507.5 -07.6817 26240.2
 01 11 2013  08 55  -21.0219 26005.1 -03507.8 -07.6823 26240.6
 01 11 2013  08 56  -21.0221 26005.3 -03508.0 -07.6827 26240.9
 01 11 2013  08 57  -21.0226 26005.4 -03508.2 -07.6829 26241.0
 01 11 2013  08 58  -21.0229 26005.4 -03508.2 -07.6830 26241.0
 01 11 2013  08 59  -21.0228 26005.2 -03508.2 -07.6829 26240.8
 01 11 2013  09 00  -21.0227 26005.2 -03508.2 -07.6830 26240.7
 01 11 2013  09 01  -21.0226 26005.2 -03508.2 -07.6830 26240.7
 01 11 2013  09 02  -21.0228 26005.2 -03508.3 -07.6833 26240.8
 01 11 2013  09 03  -21.0232 26005.3 -03508.5 -07.6836 26241.0
 01 11 2013  09 04  -21.0233 26005.3 -03508.6 -07.6838 26240.9
 01 11 2013  09 05  -21.0239 26005.4 -03508.8 -07.6843 26241.1
 01 11 2013  09 06  -21.0244 26005.3 -03508.9 -07.6846 26241.0
 01 11 2013  09 07  -21.0252 26005.4 -03509.1 -07.6850 26241.1
 01 11 2013  09 08  -21.0261 26005.6 -03509.4 -07.6854 26241.4
 01 11 2013  09 09  -21.0271 26005.7 -03509.5 -07.6858 26241.5
 01 11 2013  09 10  -21.0277 26005.8 -03509.6 -07.6859 26241.6
 01 11 2013  09 11  -21.0287 26006.1 -03509.8 -07.6862 26241.8
 01 11 2013  09 12  -21.0296 26006.3 -03509.9 -07.6864 26242.1
 01 11 2013  09 13  -21.0304 26006.0 -03509.7 -07.6859 26241.7
 01 11 2013  09 14  -21.0313 26005.8 -03509.6 -07.6859 26241.6
 01 11 2013  09 15  -21.0327 26005.7 -03509.8 -07.6864 26241.5
 01 11 2013  09 16  -21.0336 26005.6 -03509.8 -07.6864 26241.4
 01 11 2013  09 17  -21.0338 26005.6 -03509.8 -07.6864 26241.4
 01 11 2013  09 18  -21.0340 26005.4 -03509.7 -07.6863 26241.2
 01 11 2013  09 19  -21.0343 26005.2 -03509.8 -07.6865 26241.0
 01 11 2013  09 20  -21.0349 26005.0 -03509.9 -07.6867 26240.8
 01 11 2013  09 21  -21.0357 26005.0 -03510.0 -07.6870 26240.8
 01 11 2013  09 22  -21.0362 26005.0 -03510.1 -07.6872 26240.8
 01 11 2013  09 23  -21.0370 26005.2 -03510.3 -07.6875 26241.0
 01 11 2013  09 24  -21.0378 26005.5 -03510.5 -07.6878 26241.4
 01 11 2013  09 25  -21.0389 26005.9 -03510.7 -07.6881 26241.8
 01 11 2013  09 26  -21.0402 26006.0 -03510.7 -07.6882 26241.9
 01 11 2013  09 27  -21.0412 26006.1 -03510.8 -07.6883 26242.0
 01 11 2013  09 28  -21.0423 26006.2 -03510.7 -07.6882 26242.1
 01 11 2013  09 29  -21.0433 26006.5 -03510.8 -07.6883 26242.4
 01 11 2013  09 30  -21.0443 26006.8 -03510.9 -07.6884 26242.7
 01 11 2013  09 31  -21.0450 26007.0 -03510.9 -07.6884 26242.9
 01 11 2013  09 32  -21.0455 26007.2 -03510.9 -07.6883 26243.1
 01 11 2013  09 33  -21.0457 26007.5 -03510.9 -07.6883 26243.4
 01 11 2013  09 34  -21.0460 26007.8 -03511.0 -07.6883 26243.8
 01 11 2013  09 35  -21.0464 26008.3 -03511.1 -07.6883 26244.2
 01 11 2013  09 36  -21.0473 26008.8 -03511.2 -07.6884 26244.7
 01 11 2013  09 37  -21.0481 26009.4 -03511.3 -07.6885 26245.3
 01 11 2013  09 38  -21.0489 26010.0 -03511.4 -07.6885 26245.9
 01 11 2013  09 39  -21.0495 26010.4 -03511.4 -07.6884 26246.4
 01 11 2013  09 40  -21.0509 26010.9 -03511.5 -07.6884 26246.9
 01 11 2013  09 41  -21.0520 26011.3 -03511.5 -07.6883 26247.3
 01 11 2013  09 42  -21.0527 26011.7 -03511.4 -07.6881 26247.6
 01 11 2013  09 43  -21.0535 26012.0 -03511.3 -07.6878 26247.9
 01 11 2013  09 44  -21.0546 26012.2 -03511.3 -07.6876 26248.1
 01 11 2013  09 45  -21.0556 26012.3 -03511.2 -07.6875 26248.2
 01 11 2013  09 46  -21.0563 26012.5 -03511.2 -07.6874 26248.4
 01 11 2013  09 47  -21.0563 26012.5 -03511.1 -07.6872 26248.4
 01 11 2013  09 48  -21.0565 26012.7 -03511.1 -07.6871 26248.6
 01 11 2013  09 49  -21.0568 26012.8 -03511.1 -07.6870 26248.7
 01 11 2013  09 50  -21.0572 26012.8 -03511.0 -07.6869 26248.7
 01 11 2013  09 51  -21.0574 26012.4 -03510.8 -07.6865 26248.2
 01 11 2013  09 52  -21.0576 26012.0 -03510.5 -07.6861 26247.8
 01 11 2013  09 53  -21.0575 26011.7 -03510.4 -07.6859 26247.5
 01 11 2013  09 54  -21.0577 26011.6 -03510.4 -07.6858 26247.4
 01 11 2013  09 55  -21.0575 26011.6 -03510.4 -07.6858 26247.4
 01 11 2013  09 56  -21.0575 26011.7 -03510.4 -07.6858 26247.5
 01 11 2013  09 57  -21.0578 26012.0 -03510.5 -07.6860 26247.8
 01 11 2013  09 58  -21.0582 26012.4 -03510.7 -07.6863 26248.2
 01 11 2013  09 59  -21.0584 26012.6 -03510.8 -07.6864 26248.5
 01 11 2013  10 00  -21.0587 26012.7 -03510.8 -07.6864 26248.6
 01 11 2013  10 01  -21.0591 26012.8 -03510.8 -07.6864 26248.6
 01 11 2013  10 02  -21.0601 26012.9 -03510.8 -07.6865 26248.8
 01 11 2013  10 03  -21.0606 26013.2 -03511.0 -07.6866 26249.1
 01 11 2013  10 04  -21.0612 26013.5 -03511.0 -07.6867 26249.4
 01 11 2013  10 05  -21.0616 26013.7 -03511.1 -07.6867 26249.6
 01 11 2013  10 06  -21.0617 26013.8 -03511.0 -07.6867 26249.6
 01 11 2013  10 07  -21.0618 26014.0 -03511.0 -07.6866 26249.8
 01 11 2013  10 08  -21.0620 26014.2 -03511.1 -07.6866 26250.1
 01 11 2013  10 09  -21.0625 26014.5 -03511.1 -07.6866 26250.3
 01 11 2013  10 10  -21.0631 26014.7 -03511.1 -07.6866 26250.6
 01 11 2013  10 11  -21.0632 26014.9 -03511.1 -07.6865 26250.8
 01 11 2013  10 12  -21.0637 26015.4 -03511.2 -07.6866 26251.3
 01 11 2013  10 13  -21.0643 26016.3 -03511.4 -07.6868 26252.2
 01 11 2013  10 14  -21.0641 26017.0 -03511.5 -07.6866 26252.9
 01 11 2013  10 15  -21.0640 26017.5 -03511.3 -07.6861 26253.3
 01 11 2013  10 16  -21.0640 26017.5 -03511.0 -07.6854 26253.4
 01 11 2013  10 17  -21.0640 26017.5 -03510.6 -07.6847 26253.3
 01 11 2013  10 18  -21.0643 26017.3 -03510.4 -07.6843 26253.1
 01 11 2013  10 19  -21.0647 26017.4 -03510.4 -07.6843 26253.1
 01 11 2013  10 20  -21.0652 26017.7 -03510.5 -07.6844 26253.5
 01 11 2013  10 21  -21.0653 26017.9 -03510.5 -07.6842 26253.7
 01 11 2013  10 22  -21.0651 26017.8 -03510.3 -07.6838 26253.5
 01 11 2013  10 23  -21.0651 26017.3 -03510.0 -07.6833 26253.0
 01 11 2013  10 24  -21.0654 26016.8 -03509.7 -07.6830 26252.5
 01 11 2013  10 25  -21.0657 26016.6 -03509.6 -07.6828 26252.2
 01 11 2013  10 26  -21.0660 26016.3 -03509.6 -07.6828 26252.0
 01 11 2013  10 27  -21.0661 26016.1 -03509.6 -07.6828 26251.8
 01 11 2013  10 28  -21.0666 26016.0 -03509.6 -07.6829 26251.7
 01 11 2013  10 29  -21.0672 26016.0 -03509.6 -07.6830 26251.7
 01 11 2013  10 30  -21.0674 26015.9 -03509.6 -07.6829 26251.6
 01 11 2013  10 31  -21.0674 26015.8 -03509.6 -07.6829 26251.5
 01 11 2013  10 32  -21.0674 26015.8 -03509.6 -07.6829 26251.4
 01 11 2013  10 33  -21.0676 26016.0 -03509.6 -07.6829 26251.6
 01 11 2013  10 34  -21.0677 26016.2 -03509.6 -07.6829 26251.9
 01 11 2013  10 35  -21.0679 26016.4 -03509.6 -07.6828 26252.0
 01 11 2013  10 36  -21.0683 26016.6 -03509.6 -07.6828 26252.2
 01 11 2013  10 37  -21.0687 26016.9 -03509.7 -07.6829 26252.5
 01 11 2013  10 38  -21.0690 26017.2 -03509.7 -07.6828 26252.9
 01 11 2013  10 39  -21.0689 26017.3 -03509.6 -07.6826 26252.9
 01 11 2013  10 40  -21.0687 26017.2 -03509.5 -07.6823 26252.9
 01 11 2013  10 41  -21.0683 26017.3 -03509.4 -07.6822 26252.9
 01 11 2013  10 42  -21.0683 26017.6 -03509.5 -07.6822 26253.2
 01 11 2013  10 43  -21.0687 26018.0 -03509.5 -07.6822 26253.6
 01 11 2013  10 44  -21.0690 26018.3 -03509.5 -07.6821 26254.0
 01 11 2013  10 45  -21.0693 26018.6 -03509.5 -07.6819 26254.2
 01 11 2013  10 46  -21.0696 26018.8 -03509.3 -07.6815 26254.4
 01 11 2013  10 47  -21.0699 26018.9 -03509.1 -07.6810 26254.5
 01 11 2013  10 48  -21.0700 26018.7 -03508.9 -07.6805 26254.2
 01 11 2013  10 49  -21.0701 26018.5 -03508.6 -07.6801 26254.0
 01 11 2013  10 50  -21.0704 26018.2 -03508.4 -07.6797 26253.7
 01 11 2013  10 51  -21.0704 26017.9 -03508.2 -07.6794 26253.4
 01 11 2013  10 52  -21.0704 26017.8 -03508.1 -07.6792 26253.2
 01 11 2013  10 53  -21.0709 26017.8 -03508.1 -07.6791 26253.3
 01 11 2013  10 54  -21.0712 26017.9 -03508.1 -07.6790 26253.3
 01 11 2013  10 55  -21.0712 26017.9 -03508.0 -07.6788 26253.3
 01 11 2013  10 56  -21.0714 26017.9 -03507.9 -07.6786 26253.3
 01 11 2013  10 57  -21.0720 26018.2 -03507.9 -07.6785 26253.6
 01 11 2013  10 58  -21.0725 26018.7 -03507.9 -07.6785 26254.1
 01 11 2013  10 59  -21.0725 26019.0 -03507.8 -07.6781 26254.4
 01 11 2013  11 00  -21.0723 26019.0 -03507.5 -07.6775 26254.3
 01 11 2013  11 01  -21.0726 26018.8 -03507.3 -07.6770 26254.1
 01 11 2013  11 02  -21.0725 26018.8 -03507.1 -07.6766 26254.1
 01 11 2013  11 03  -21.0720 26018.8 -03506.9 -07.6762 26254.1
 01 11 2013  11 04  -21.0713 26018.9 -03506.7 -07.6758 26254.2
 01 11 2013  11 05  -21.0705 26019.0 -03506.5 -07.6754 26254.2
 01 11 2013  11 06  -21.0699 26019.1 -03506.3 -07.6750 26254.3
 01 11 2013  11 07  -21.0694 26019.4 -03506.3 -07.6747 26254.6
 01 11 2013  11 08  -21.0694 26019.8 -03506.3 -07.6745 26255.0
 01 11 2013  11 09  -21.0694 26020.2 -03506.2 -07.6743 26255.4
 01 11 2013  11 10  -21.0694 26020.7 -03506.1 -07.6739 26255.8
 01 11 2013  11 11  -21.0692 26021.0 -03506.0 -07.6736 26256.2
 01 11 2013  11 12  -21.0686 26021.4 -03505.8 -07.6730 26256.5
 01 11 2013  11 13  -21.0682 26021.7 -03505.6 -07.6726 26256.8
 01 11 2013  11 14  -21.0677 26022.2 -03505.5 -07.6723 26257.2
 01 11 2013  11 15  -21.0672 26022.7 -03505.5 -07.6720 26257.7
 01 11 2013  11 16  -21.0667 26023.1 -03505.3 -07.6716 26258.1
 01 11 2013  11 17  -21.0664 26023.3 -03505.1 -07.6711 26258.3
 01 11 2013  11 18  -21.0662 26023.5 -03505.0 -07.6708 26258.5
 01 11 2013  11 19  -21.0659 26023.7 -03504.9 -07.6704 26258.7
 01 11 2013  11 20  -21.0655 26024.0 -03504.8 -07.6702 26259.0
 01 11 2013  11 21  -21.0647 26024.3 -03504.7 -07.6699 26259.3
 01 11 2013  11 22  -21.0638 26024.5 -03504.6 -07.6695 26259.4
 01 11 2013  11 23  -21.0633 26024.8 -03504.5 -07.6693 26259.7
 01 11 2013  11 24  -21.0630 26025.2 -03504.5 -07.6692 26260.1
 01 11 2013  11 25  -21.0629 26025.6 -03504.5 -07.6690 26260.5
 01 11 2013  11 26  -21.0623 26026.0 -03504.4 -07.6687 26260.9
 01 11 2013  11 27  -21.0619 26026.4 -03504.3 -07.6685 26261.2
 01 11 2013  11 28  -21.0621 26026.7 -03504.3 -07.6683 26261.5
 01 11 2013  11 29  -21.0623 26027.0 -03504.3 -07.6681 26261.8
 01 11 2013  11 30  -21.0620 26027.3 -03504.1 -07.6678 26262.1
 01 11 2013  11 31  -21.0615 26027.4 -03504.0 -07.6674 26262.2
 01 11 2013  11 32  -21.0612 26027.4 -03503.9 -07.6672 26262.2
 01 11 2013  11 33  -21.0613 26027.7 -03503.9 -07.6671 26262.5
 01 11 2013  11 34  -21.0613 26028.0 -03503.8 -07.6669 26262.8
 01 11 2013  11 35  -21.0612 26028.4 -03503.8 -07.6667 26263.2
 01 11 2013  11 36  -21.0607 26028.8 -03503.8 -07.6666 26263.6
 01 11 2013  11 37  -21.0601 26029.2 -03503.7 -07.6663 26263.9
 01 11 2013  11 38  -21.0599 26029.4 -03503.6 -07.6660 26264.1
 01 11 2013  11 39  -21.0599 26029.5 -03503.5 -07.6657 26264.3
 01 11 2013  11 40  -21.0599 26029.6 -03503.4 -07.6655 26264.3
 01 11 2013  11 41  -21.0599 26029.5 -03503.2 -07.6652 26264.2
 01 11 2013  11 42  -21.0598 26029.6 -03503.1 -07.6650 26264.3
 01 11 2013  11 43  -21.0596 26029.8 -03503.1 -07.6649 26264.5
 01 11 2013  11 44  -21.0591 26030.1 -03503.2 -07.6649 26264.8
 01 11 2013  11 45  -21.0589 26030.3 -03503.2 -07.6648 26265.0
 01 11 2013  11 46  -21.0591 26030.5 -03503.1 -07.6647 26265.1
 01 11 2013  11 47  -21.0594 26030.5 -03503.1 -07.6646 26265.2
 01 11 2013  11 48  -21.0596 26030.5 -03503.0 -07.6643 26265.1
 01 11 2013  11 49  -21.0599 26030.5 -03502.9 -07.6641 26265.2
 01 11 2013  11 50  -21.0600 26030.6 -03502.8 -07.6640 26265.2
 01 11 2013  11 51  -21.0600 26031.0 -03502.9 -07.6640 26265.6
 01 11 2013  11 52  -21.0601 26031.3 -03502.9 -07.6639 26265.9
 01 11 2013  11 53  -21.0604 26031.7 -03502.9 -07.6639 26266.3
 01 11 2013  11 54  -21.0605 26032.1 -03502.9 -07.6638 26266.7
 01 11 2013  11 55  -21.0609 26032.4 -03502.9 -07.6636 26267.0
 01 11 2013  11 56  -21.0613 26032.7 -03502.9 -07.6635 26267.4
 01 11 2013  11 57  -21.0614 26033.0 -03502.8 -07.6633 26267.6
 01 11 2013  11 58  -21.0612 26033.0 -03502.7 -07.6631 26267.6
 01 11 2013  11 59  -21.0611 26032.8 -03502.6 -07.6628 26267.4
 01 11 2013  12 00  -21.0611 26032.9 -03502.6 -07.6628 26267.4
 01 11 2013  12 01  -21.0612 26032.9 -03502.6 -07.6628 26267.5
 01 11 2013  12 02  -21.0611 26033.1 -03502.6 -07.6628 26267.6
 01 11 2013  12 03  -21.0610 26033.3 -03502.7 -07.6629 26267.9
 01 11 2013  12 04  -21.0607 26033.5 -03502.7 -07.6628 26268.1
 01 11 2013  12 05  -21.0606 26033.8 -03502.7 -07.6629 26268.4
 01 11 2013  12 06  -21.0608 26034.1 -03502.8 -07.6630 26268.7
 01 11 2013  12 07  -21.0612 26034.4 -03502.8 -07.6629 26268.9
 01 11 2013  12 08  -21.0615 26034.7 -03502.8 -07.6628 26269.3
 01 11 2013  12 09  -21.0617 26034.9 -03502.8 -07.6626 26269.4
 01 11 2013  12 10  -21.0619 26035.4 -03502.8 -07.6626 26270.0
 01 11 2013  12 11  -21.0624 26035.8 -03502.8 -07.6625 26270.4
 01 11 2013  12 12  -21.0629 26035.9 -03502.7 -07.6623 26270.5
 01 11 2013  12 13  -21.0631 26036.3 -03502.7 -07.6621 26270.8
 01 11 2013  12 14  -21.0634 26036.3 -03502.5 -07.6617 26270.8
 01 11 2013  12 15  -21.0642 26036.3 -03502.4 -07.6614 26270.8
 01 11 2013  12 16  -21.0649 26036.3 -03502.3 -07.6611 26270.8
 01 11 2013  12 17  -21.0655 26035.3 -03501.7 -07.6602 26269.7
 01 11 2013  12 18  -21.0659 26034.9 -03501.6 -07.6601 26269.3
 01 11 2013  12 19  -21.0664 26034.3 -03501.4 -07.6599 26268.7
 01 11 2013  12 20  -21.0667 26034.2 -03501.5 -07.6601 26268.6
 01 11 2013  12 21  -21.0668 26034.2 -03501.6 -07.6602 26268.7
 01 11 2013  12 22  -21.0671 26034.3 -03501.6 -07.6603 26268.7
 01 11 2013  12 23  -21.0677 26034.5 -03501.7 -07.6604 26269.0
 01 11 2013  12 24  -21.0683 26034.9 -03501.7 -07.6604 26269.3
 01 11 2013  12 25  -21.0688 26035.5 -03501.8 -07.6603 26269.9
 01 11 2013  12 26  -21.0696 26036.1 -03501.8 -07.6602 26270.5
 01 11 2013  12 27  -21.0703 26036.4 -03501.6 -07.6597 26270.8
 01 11 2013  12 28  -21.0708 26037.1 -03501.6 -07.6595 26271.5
 01 11 2013  12 29  -21.0710 26037.8 -03501.5 -07.6591 26272.2
 01 11 2013  12 30  -21.0712 26038.1 -03501.3 -07.6586 26272.4
 01 11 2013  12 31  -21.0711 26038.0 -03501.0 -07.6579 26272.3
 01 11 2013  12 32  -21.0705 26038.3 -03500.9 -07.6575 26272.6
 01 11 2013  12 33  -21.0698 26038.7 -03500.8 -07.6572 26273.0
 01 11 2013  12 34  -21.0696 26038.8 -03500.6 -07.6568 26273.0
 01 11 2013  12 35  -21.0696 26039.0 -03500.5 -07.6566 26273.3
 01 11 2013  12 36  -21.0697 26039.8 -03500.6 -07.6566 26274.1
 01 11 2013  12 37  -21.0702 26040.7 -03500.8 -07.6566 26274.9
 01 11 2013  12 38  -21.0707 26041.5 -03500.8 -07.6564 26275.7
 01 11 2013  12 39  -21.0711 26042.5 -03500.8 -07.6562 26276.7
 01 11 2013  12 40  -21.0715 26043.1 -03500.7 -07.6557 26277.3
 01 11 2013  12 41  -21.0716 26043.7 -03500.5 -07.6552 26277.9
 01 11 2013  12 42  -21.0717 26043.4 -03499.9 -07.6541 26277.5
 01 11 2013  12 43  -21.0720 26043.5 -03499.7 -07.6534 26277.6
 01 11 2013  12 44  -21.0726 26043.6 -03499.5 -07.6529 26277.7
 01 11 2013  12 45  -21.0732 26043.4 -03499.1 -07.6522 26277.4
 01 11 2013  12 46  -21.0738 26043.0 -03498.8 -07.6516 26277.0
 01 11 2013  12 47  -21.0741 26042.6 -03498.4 -07.6510 26276.5
 01 11 2013  12 48  -21.0744 26042.2 -03498.1 -07.6504 26276.1
 01 11 2013  12 49  -21.0749 26042.1 -03497.9 -07.6501 26276.0
 01 11 2013  12 50  -21.0755 26042.1 -03497.9 -07.6499 26276.0
 01 11 2013  12 51  -21.0762 26042.3 -03497.8 -07.6498 26276.2
 01 11 2013  12 52  -21.0766 26042.2 -03497.7 -07.6495 26276.0
 01 11 2013  12 53  -21.0766 26042.6 -03497.7 -07.6494 26276.5
 01 11 2013  12 54  -21.0766 26042.5 -03497.5 -07.6490 26276.3
 01 11 2013  12 55  -21.0764 26042.0 -03497.2 -07.6485 26275.8
 01 11 2013  12 56  -21.0764 26041.4 -03496.9 -07.6480 26275.1
 01 11 2013  12 57  -21.0767 26040.9 -03496.7 -07.6478 26274.6
 01 11 2013  12 58  -21.0775 26040.4 -03496.6 -07.6477 26274.1
 01 11 2013  12 59  -21.0782 26040.7 -03496.8 -07.6481 26274.4
 01 11 2013  13 00  -21.0788 26041.0 -03496.9 -07.6482 26274.8
 01 11 2013  13 01  -21.0791 26041.1 -03496.9 -07.6482 26274.9
 01 11 2013  13 02  -21.0792 26041.0 -03496.8 -07.6480 26274.7
 01 11 2013  13 03  -21.0797 26040.9 -03496.7 -07.6478 26274.6
 01 11 2013  13 04  -21.0800 26041.3 -03496.8 -07.6478 26275.0
 01 11 2013  13 05  -21.0804 26041.9 -03496.9 -07.6480 26275.6
 01 11 2013  13 06  -21.0809 26042.0 -03496.9 -07.6479 26275.7
 01 11 2013  13 07  -21.0817 26042.3 -03496.9 -07.6477 26276.1
 01 11 2013  13 08  -21.0825 26042.7 -03496.8 -07.6475 26276.4
 01 11 2013  13 09  -21.0831 26042.8 -03496.7 -07.6472 26276.5
 01 11 2013  13 10  -21.0836 26043.5 -03496.8 -07.6471 26277.2
 01 11 2013  13 11  -21.0838 26044.8 -03497.0 -07.6473 26278.5
 01 11 2013  13 12  -21.0842 26045.4 -03496.9 -07.6468 26279.1
 01 11 2013  13 13  -21.0845 26045.7 -03496.7 -07.6463 26279.4
 01 11 2013  13 14  -21.0847 26046.0 -03496.4 -07.6457 26279.6
 01 11 2013  13 15  -21.0848 26047.1 -03496.6 -07.6457 26280.7
 01 11 2013  13 16  -21.0850 26047.8 -03496.5 -07.6453 26281.4
 01 11 2013  13 17  -21.0849 26047.7 -03496.1 -07.6444 26281.2
 01 11 2013  13 18  -21.0850 26047.4 -03495.7 -07.6436 26280.9
 01 11 2013  13 19  -21.0851 26047.2 -03495.4 -07.6431 26280.7
 01 11 2013  13 20  -21.0851 26047.3 -03495.2 -07.6427 26280.8
 01 11 2013  13 21  -21.0856 26047.2 -03495.0 -07.6422 26280.6
 01 11 2013  13 22  -21.0861 26047.2 -03494.9 -07.6420 26280.6
 01 11 2013  13 23  -21.0864 26047.3 -03494.8 -07.6418 26280.7
 01 11 2013  13 24  -21.0867 26047.1 -03494.6 -07.6414 26280.5
 01 11 2013  13 25  -21.0868 26046.8 -03494.4 -07.6410 26280.1
 01 11 2013  13 26  -21.0864 26046.7 -03494.2 -07.6407 26280.0
 01 11 2013  13 27  -21.0864 26046.5 -03494.1 -07.6405 26279.8
 01 11 2013  13 28  -21.0868 26046.1 -03494.0 -07.6403 26279.4
 01 11 2013  13 29  -21.0870 26046.0 -03493.9 -07.6402 26279.3
 01 11 2013  13 30  -21.0872 26046.1 -03493.9 -07.6402 26279.4
 01 11 2013  13 31  -21.0872 26046.4 -03494.0 -07.6403 26279.7
 01 11 2013  13 32  -21.0874 26046.7 -03494.0 -07.6402 26280.0
 01 11 2013  13 33  -21.0877 26046.8 -03493.8 -07.6399 26280.1
 01 11 2013  13 34  -21.0874 26046.5 -03493.6 -07.6393 26279.8
 01 11 2013  13 35  -21.0871 26046.5 -03493.4 -07.6390 26279.7
 01 11 2013  13 36  -21.0870 26046.9 -03493.4 -07.6390 26280.1
 01 11 2013  13 37  -21.0873 26047.7 -03493.6 -07.6391 26281.0
 01 11 2013  13 38  -21.0877 26048.4 -03493.7 -07.6390 26281.6
 01 11 2013  13 39  -21.0878 26048.9 -03493.5 -07.6386 26282.2
 01 11 2013  13 40  -21.0879 26048.9 -03493.2 -07.6378 26282.1
 01 11 2013  13 41  -21.0876 26048.7 -03492.8 -07.6370 26281.8
 01 11 2013  13 42  -21.0872 26048.6 -03492.5 -07.6365 26281.7
 01 11 2013  13 43  -21.0870 26048.4 -03492.2 -07.6359 26281.5
 01 11 2013  13 44  -21.0871 26048.6 -03492.2 -07.6357 26281.7
 01 11 2013  13 45  -21.0872 26048.5 -03492.0 -07.6353 26281.5
 01 11 2013  13 46  -21.0874 26048.3 -03491.7 -07.6349 26281.3
 01 11 2013  13 47  -21.0874 26048.1 -03491.5 -07.6344 26281.0
 01 11 2013  13 48  -21.0867 26049.1 -03491.7 -07.6346 26282.1
 01 11 2013  13 49  -21.0859 26050.0 -03491.8 -07.6346 26283.0
 01 11 2013  13 50  -21.0855 26050.3 -03491.7 -07.6341 26283.2
 01 11 2013  13 51  -21.0850 26050.3 -03491.5 -07.6337 26283.3
 01 11 2013  13 52  -21.0846 26050.5 -03491.3 -07.6333 26283.4
 01 11 2013  13 53  -21.0844 26050.9 -03491.3 -07.6332 26283.8
 01 11 2013  13 54  -21.0844 26051.3 -03491.3 -07.6331 26284.2
 01 11 2013  13 55  -21.0843 26051.6 -03491.2 -07.6328 26284.5
 01 11 2013  13 56  -21.0841 26051.9 -03491.1 -07.6324 26284.8
 01 11 2013  13 57  -21.0838 26052.2 -03490.9 -07.6320 26285.0
 01 11 2013  13 58  -21.0838 26052.3 -03490.8 -07.6316 26285.1
 01 11 2013  13 59  -21.0832 26052.3 -03490.5 -07.6311 26285.0
 01 11 2013  14 00  -21.0825 26051.9 -03490.2 -07.6304 26284.6
 01 11 2013  14 01  -21.0818 26051.1 -03489.7 -07.6297 26283.8
 01 11 2013  14 02  -21.0815 26050.1 -03489.4 -07.6292 26282.7
 01 11 2013  14 03  -21.0808 26049.0 -03489.0 -07.6289 26281.6
 01 11 2013  14 04  -21.0801 26048.1 -03488.9 -07.6289 26280.7
 01 11 2013  14 05  -21.0795 26047.4 -03488.9 -07.6290 26280.0
 01 11 2013  14 06  -21.0789 26046.4 -03488.8 -07.6292 26279.0
 01 11 2013  14 07  -21.0782 26045.6 -03488.8 -07.6294 26278.3
 01 11 2013  14 08  -21.0777 26045.2 -03489.0 -07.6300 26277.9
 01 11 2013  14 09  -21.0772 26044.7 -03489.2 -07.6305 26277.4
 01 11 2013  14 10  -21.0768 26044.3 -03489.5 -07.6311 26277.0
 01 11 2013  14 11  -21.0767 26044.1 -03489.8 -07.6319 26276.9
 01 11 2013  14 12  -21.0765 26044.1 -03490.1 -07.6326 26276.9
 01 11 2013  14 13  -21.0762 26044.1 -03490.4 -07.6331 26277.0
 01 11 2013  14 14  -21.0759 26044.4 -03490.7 -07.6338 26277.3
 01 11 2013  14 15  -21.0757 26044.2 -03490.8 -07.6341 26277.1
 01 11 2013  14 16  -21.0754 26043.9 -03490.9 -07.6343 26276.8
 01 11 2013  14 17  -21.0755 26044.0 -03491.1 -07.6349 26276.9
 01 11 2013  14 18  -21.0757 26044.6 -03491.6 -07.6356 26277.6
 01 11 2013  14 19  -21.0757 26044.9 -03491.8 -07.6360 26277.9
 01 11 2013  14 20  -21.0760 26045.6 -03492.1 -07.6364 26278.7
 01 11 2013  14 21  -21.0766 26046.3 -03492.3 -07.6367 26279.4
 01 11 2013  14 22  -21.0769 26047.0 -03492.4 -07.6367 26280.1
 01 11 2013  14 23  -21.0771 26047.5 -03492.4 -07.6366 26280.6
 01 11 2013  14 24  -21.0768 26048.1 -03492.4 -07.6364 26281.2
 01 11 2013  14 25  -21.0765 26048.5 -03492.3 -07.6361 26281.5
 01 11 2013  14 26  -21.0764 26049.2 -03492.4 -07.6360 26282.3
 01 11 2013  14 27  -21.0768 26050.1 -03492.5 -07.6360 26283.2
 01 11 2013  14 28  -21.0772 26050.5 -03492.4 -07.6356 26283.6
 01 11 2013  14 29  -21.0771 26050.5 -03492.0 -07.6348 26283.5
 01 11 2013  14 30  -21.0770 26050.4 -03491.7 -07.6343 26283.4
 01 11 2013  14 31  -21.0767 26049.7 -03491.3 -07.6335 26282.6
 01 11 2013  14 32  -21.0760 26049.2 -03490.9 -07.6329 26282.1
 01 11 2013  14 33  -21.0752 26049.0 -03490.8 -07.6327 26281.9
 01 11 2013  14 34  -21.0745 26049.0 -03490.9 -07.6328 26281.9
 01 11 2013  14 35  -21.0740 26048.9 -03490.9 -07.6329 26281.8
 01 11 2013  14 36  -21.0735 26048.6 -03490.8 -07.6327 26281.4
 01 11 2013  14 37  -21.0731 26048.3 -03490.7 -07.6327 26281.1
 01 11 2013  14 38  -21.0729 26048.1 -03490.7 -07.6328 26281.0
 01 11 2013  14 39  -21.0728 26048.4 -03490.9 -07.6330 26281.3
 01 11 2013  14 40  -21.0724 26048.5 -03491.0 -07.6332 26281.4
 01 11 2013  14 41  -21.0719 26048.2 -03490.8 -07.6329 26281.1
 01 11 2013  14 42  -21.0720 26048.3 -03490.9 -07.6330 26281.2
 01 11 2013  14 43  -21.0721 26048.5 -03490.9 -07.6330 26281.4
 01 11 2013  14 44  -21.0727 26048.5 -03490.9 -07.6330 26281.3
 01 11 2013  14 45  -21.0726 26048.8 -03491.0 -07.6331 26281.7
 01 11 2013  14 46  -21.0726 26049.0 -03491.0 -07.6331 26281.9
 01 11 2013  14 47  -21.0725 26049.0 -03490.9 -07.6328 26281.8
 01 11 2013  14 48  -21.0725 26049.1 -03490.8 -07.6327 26281.9
 01 11 2013  14 49  -21.0726 26049.3 -03490.8 -07.6326 26282.1
 01 11 2013  14 50  -21.0728 26049.5 -03490.9 -07.6326 26282.4
 01 11 2013  14 51  -21.0729 26050.0 -03490.9 -07.6326 26282.8
 01 11 2013  14 52  -21.0732 26050.1 -03490.9 -07.6325 26283.0
 01 11 2013  14 53  -21.0734 26050.1 -03490.7 -07.6321 26282.9
 01 11 2013  14 54  -21.0733 26050.4 -03490.7 -07.6319 26283.3
 01 11 2013  14 55  -21.0730 26050.5 -03490.4 -07.6314 26283.3
 01 11 2013  14 56  -21.0731 26050.4 -03490.2 -07.6310 26283.1
 01 11 2013  14 57  -21.0726 26050.1 -03489.9 -07.6305 26282.9
 01 11 2013  14 58  -21.0721 26049.8 -03489.7 -07.6300 26282.5
 01 11 2013  14 59  -21.0717 26049.6 -03489.5 -07.6298 26282.3
 01 11 2013  15 00  -21.0716 26049.5 -03489.5 -07.6297 26282.2
 01 11 2013  15 01  -21.0713 26049.3 -03489.4 -07.6295 26282.0
 01 11 2013  15 02  -21.0709 26048.9 -03489.2 -07.6292 26281.6
 01 11 2013  15 03  -21.0707 26048.5 -03489.0 -07.6290 26281.1
 01 11 2013  15 04  -21.0706 26048.2 -03489.0 -07.6289 26280.8
 01 11 2013  15 05  -21.0706 26048.1 -03489.0 -07.6290 26280.7
 01 11 2013  15 06  -21.0706 26047.9 -03488.9 -07.6288 26280.5
 01 11 2013  15 07  -21.0705 26047.5 -03488.7 -07.6286 26280.1
 01 11 2013  15 08  -21.0702 26046.9 -03488.5 -07.6283 26279.5
 01 11 2013  15 09  -21.0697 26046.4 -03488.3 -07.6280 26279.0
 01 11 2013  15 10  -21.0696 26046.5 -03488.4 -07.6281 26279.0
 01 11 2013  15 11  -21.0697 26046.6 -03488.5 -07.6283 26279.2
 01 11 2013  15 12  -21.0694 26046.9 -03488.6 -07.6285 26279.5
 01 11 2013  15 13  -21.0690 26047.2 -03488.7 -07.6286 26279.8
 01 11 2013  15 14  -21.0687 26047.4 -03488.7 -07.6287 26280.0
 01 11 2013  15 15  -21.0681 26047.5 -03488.7 -07.6286 26280.1
 01 11 2013  15 16  -21.0676 26047.5 -03488.6 -07.6284 26280.1
 01 11 2013  15 17  -21.0677 26047.7 -03488.7 -07.6285 26280.3
 01 11 2013  15 18  -21.0677 26047.6 -03488.6 -07.6283 26280.1
 01 11 2013  15 19  -21.0676 26047.5 -03488.6 -07.6283 26280.1
 01 11 2013  15 20  -21.0677 26047.9 -03488.8 -07.6286 26280.5
 01 11 2013  15 21  -21.0677 26048.3 -03488.9 -07.6287 26280.9
 01 11 2013  15 22  -21.0680 26048.6 -03488.9 -07.6286 26281.2
 01 11 2013  15 23  -21.0675 26048.6 -03488.7 -07.6282 26281.2
 01 11 2013  15 24  -21.0671 26048.2 -03488.4 -07.6278 26280.7
 01 11 2013  15 25  -21.0666 26047.9 -03488.3 -07.6277 26280.4
 01 11 2013  15 26  -21.0661 26047.5 -03488.3 -07.6276 26280.0
 01 11 2013  15 27  -21.0659 26047.4 -03488.3 -07.6278 26279.9
 01 11 2013  15 28  -21.0657 26047.3 -03488.4 -07.6280 26279.9
 01 11 2013  15 29  -21.0652 26047.3 -03488.5 -07.6282 26279.9
 01 11 2013  15 30  -21.0650 26047.2 -03488.6 -07.6284 26279.7
 01 11 2013  15 31  -21.0648 26047.2 -03488.7 -07.6287 26279.8
 01 11 2013  15 32  -21.0647 26047.2 -03488.9 -07.6291 26279.8
 01 11 2013  15 33  -21.0646 26047.1 -03489.0 -07.6292 26279.7
 01 11 2013  15 34  -21.0646 26047.3 -03489.2 -07.6297 26280.0
 01 11 2013  15 35  -21.0648 26047.4 -03489.3 -07.6299 26280.0
 01 11 2013  15 36  -21.0649 26047.2 -03489.3 -07.6298 26279.9
 01 11 2013  15 37  -21.0651 26047.0 -03489.2 -07.6298 26279.7
 01 11 2013  15 38  -21.0653 26046.6 -03489.2 -07.6298 26279.3
 01 11 2013  15 39  -21.0654 26046.0 -03489.0 -07.6296 26278.7
 01 11 2013  15 40  -21.0652 26045.7 -03489.0 -07.6298 26278.4
 01 11 2013  15 41  -21.0652 26045.0 -03488.8 -07.6296 26277.6
 01 11 2013  15 42  -21.0655 26044.3 -03488.7 -07.6296 26276.9
 01 11 2013  15 43  -21.0654 26043.9 -03488.8 -07.6297 26276.5
 01 11 2013  15 44  -21.0650 26043.5 -03488.8 -07.6299 26276.1
 01 11 2013  15 45  -21.0648 26043.0 -03488.8 -07.6302 26275.7
 01 11 2013  15 46  -21.0644 26042.5 -03488.8 -07.6303 26275.2
 01 11 2013  15 47  -21.0641 26042.0 -03488.8 -07.6304 26274.7
 01 11 2013  15 48  -21.0638 26041.6 -03488.9 -07.6307 26274.3
 01 11 2013  15 49  -21.0633 26041.0 -03488.9 -07.6308 26273.7
 01 11 2013  15 50  -21.0629 26040.7 -03488.9 -07.6310 26273.4
 01 11 2013  15 51  -21.0625 26040.7 -03489.1 -07.6315 26273.5
 01 11 2013  15 52  -21.0626 26040.8 -03489.3 -07.6319 26273.5
 01 11 2013  15 53  -21.0623 26040.4 -03489.2 -07.6317 26273.1
 01 11 2013  15 54  -21.0622 26040.1 -03489.2 -07.6317 26272.8
 01 11 2013  15 55  -21.0618 26039.7 -03489.1 -07.6317 26272.4
 01 11 2013  15 56  -21.0616 26039.5 -03489.2 -07.6319 26272.3
 01 11 2013  15 57  -21.0612 26039.4 -03489.1 -07.6319 26272.1
 01 11 2013  15 58  -21.0609 26039.1 -03489.2 -07.6320 26271.8
 01 11 2013  15 59  -21.0609 26039.0 -03489.2 -07.6320 26271.7
 01 11 2013  16 00  -21.0608 26039.0 -03489.3 -07.6323 26271.7
 01 11 2013  16 01  -21.0607 26039.2 -03489.4 -07.6325 26272.0
 01 11 2013  16 02  -21.0606 26039.5 -03489.5 -07.6326 26272.2
 01 11 2013  16 03  -21.0602 26039.7 -03489.5 -07.6325 26272.5
 01 11 2013  16 04  -21.0599 26039.9 -03489.5 -07.6325 26272.7
 01 11 2013  16 05  -21.0595 26040.0 -03489.4 -07.6323 26272.7
 01 11 2013  16 06  -21.0591 26040.0 -03489.4 -07.6322 26272.8
 01 11 2013  16 07  -21.0587 26040.1 -03489.4 -07.6322 26272.8
 01 11 2013  16 08  -21.0582 26040.1 -03489.4 -07.6322 26272.9
 01 11 2013  16 09  -21.0578 26040.2 -03489.4 -07.6322 26272.9
 01 11 2013  16 10  -21.0573 26040.2 -03489.5 -07.6323 26273.0
 01 11 2013  16 11  -21.0567 26040.3 -03489.5 -07.6324 26273.1
 01 11 2013  16 12  -21.0561 26040.4 -03489.6 -07.6325 26273.2
 01 11 2013  16 13  -21.0559 26040.7 -03489.7 -07.6327 26273.5
 01 11 2013  16 14  -21.0556 26041.0 -03489.8 -07.6329 26273.8
 01 11 2013  16 15  -21.0554 26041.5 -03490.1 -07.6333 26274.3
 01 11 2013  16 16  -21.0546 26041.4 -03490.0 -07.6332 26274.2
 01 11 2013  16 17  -21.0538 26041.5 -03490.1 -07.6333 26274.3
 01 11 2013  16 18  -21.0534 26041.6 -03490.2 -07.6335 26274.5
 01 11 2013  16 19  -21.0529 26041.8 -03490.4 -07.6339 26274.7
 01 11 2013  16 20  -21.0528 26042.2 -03490.7 -07.6345 26275.2
 01 11 2013  16 21  -21.0529 26042.5 -03490.9 -07.6348 26275.5
 01 11 2013  16 22  -21.0529 26042.7 -03491.1 -07.6350 26275.7
 01 11 2013  16 23  -21.0528 26042.7 -03491.2 -07.6353 26275.7
 01 11 2013  16 24  -21.0524 26042.6 -03491.3 -07.6357 26275.5
 01 11 2013  16 25  -21.0519 26042.5 -03491.5 -07.6360 26275.5
 01 11 2013  16 26  -21.0520 26042.5 -03491.7 -07.6365 26275.5
 01 11 2013  16 27  -21.0520 26042.1 -03491.7 -07.6367 26275.2
 01 11 2013  16 28  -21.0520 26042.0 -03491.9 -07.6370 26275.0
 01 11 2013  16 29  -21.0522 26041.9 -03492.1 -07.6374 26275.0
 01 11 2013  16 30  -21.0527 26041.9 -03492.2 -07.6378 26275.0
 01 11 2013  16 31  -21.0531 26041.8 -03492.3 -07.6381 26275.0
 01 11 2013  16 32  -21.0536 26041.7 -03492.4 -07.6383 26274.8
 01 11 2013  16 33  -21.0539 26041.7 -03492.5 -07.6385 26274.8
 01 11 2013  16 34  -21.0539 26041.4 -03492.5 -07.6385 26274.6
 01 11 2013  16 35  -21.0538 26041.4 -03492.6 -07.6387 26274.5
 01 11 2013  16 36  -21.0541 26041.6 -03492.8 -07.6392 26274.8
 01 11 2013  16 37  -21.0543 26042.0 -03493.1 -07.6396 26275.2
 01 11 2013  16 38  -21.0541 26042.0 -03493.1 -07.6397 26275.2
 01 11 2013  16 39  -21.0539 26042.0 -03493.1 -07.6397 26275.2
 01 11 2013  16 40  -21.0535 26042.0 -03493.2 -07.6400 26275.2
 01 11 2013  16 41  -21.0530 26041.7 -03493.2 -07.6400 26274.9
 01 11 2013  16 42  -21.0528 26041.5 -03493.3 -07.6402 26274.8
 01 11 2013  16 43  -21.0529 26041.2 -03493.4 -07.6404 26274.5
 01 11 2013  16 44  -21.0525 26040.7 -03493.3 -07.6404 26274.0
 01 11 2013  16 45  -21.0524 26040.6 -03493.5 -07.6409 26273.9
 01 11 2013  16 46  -21.0526 26040.3 -03493.6 -07.6412 26273.6
 01 11 2013  16 47  -21.0525 26040.0 -03493.7 -07.6414 26273.4
 01 11 2013  16 48  -21.0524 26039.8 -03493.8 -07.6418 26273.2
 01 11 2013  16 49  -21.0524 26039.8 -03494.0 -07.6422 26273.2
 01 11 2013  16 50  -21.0528 26039.9 -03494.3 -07.6428 26273.3
 01 11 2013  16 51  -21.0529 26039.8 -03494.3 -07.6429 26273.2
 01 11 2013  16 52  -21.0534 26039.7 -03494.5 -07.6432 26273.1
 01 11 2013  16 53  -21.0529 26039.8 -03494.6 -07.6436 26273.2
 01 11 2013  16 54  -21.0527 26039.9 -03494.9 -07.6441 26273.4
 01 11 2013  16 55  -21.0519 26039.7 -03494.8 -07.6441 26273.1
 01 11 2013  16 56  -21.0517 26039.5 -03494.9 -07.6443 26273.0
 01 11 2013  16 57  -21.0516 26039.5 -03495.1 -07.6447 26273.0
 01 11 2013  16 58  -21.0517 26039.6 -03495.3 -07.6452 26273.2
 01 11 2013  16 59  -21.0519 26040.0 -03495.6 -07.6457 26273.5
 01 11 2013  17 00  -21.0521 26040.3 -03495.9 -07.6463 26273.9
 01 11 2013  17 01  -21.0525 26040.7 -03496.2 -07.6467 26274.3
 01 11 2013  17 02  -21.0529 26041.0 -03496.4 -07.6470 26274.7
 01 11 2013  17 03  -21.0533 26041.4 -03496.5 -07.6472 26275.0
 01 11 2013  17 04  -21.0532 26041.5 -03496.5 -07.6472 26275.1
 01 11 2013  17 05  -21.0533 26041.7 -03496.6 -07.6473 26275.4
 01 11 2013  17 06  -21.0536 26041.6 -03496.6 -07.6473 26275.3
 01 11 2013  17 07  -21.0539 26041.7 -03496.6 -07.6473 26275.4
 01 11 2013  17 08  -21.0544 26041.7 -03496.6 -07.6473 26275.4
 01 11 2013  17 09  -21.0546 26041.8 -03496.6 -07.6472 26275.5
 01 11 2013  17 10  -21.0546 26041.8 -03496.6 -07.6473 26275.5
 01 11 2013  17 11  -21.0554 26042.0 -03496.7 -07.6474 26275.7
 01 11 2013  17 12  -21.0553 26041.9 -03496.5 -07.6471 26275.6
 01 11 2013  17 13  -21.0550 26041.8 -03496.5 -07.6470 26275.5
 01 11 2013  17 14  -21.0545 26041.4 -03496.3 -07.6468 26275.1
 01 11 2013  17 15  -21.0542 26041.2 -03496.3 -07.6468 26274.8
 01 11 2013  17 16  -21.0541 26041.2 -03496.4 -07.6471 26274.9
 01 11 2013  17 17  -21.0539 26041.3 -03496.5 -07.6473 26275.0
 01 11 2013  17 18  -21.0537 26041.5 -03496.7 -07.6476 26275.2
 01 11 2013  17 19  -21.0533 26041.5 -03496.8 -07.6478 26275.3
 01 11 2013  17 20  -21.0530 26041.7 -03496.9 -07.6480 26275.4
 01 11 2013  17 21  -21.0528 26041.8 -03497.1 -07.6484 26275.5
 01 11 2013  17 22  -21.0525 26041.9 -03497.2 -07.6486 26275.6
 01 11 2013  17 23  -21.0525 26042.0 -03497.4 -07.6489 26275.8
 01 11 2013  17 24  -21.0527 26042.2 -03497.6 -07.6492 26276.0
 01 11 2013  17 25  -21.0529 26042.2 -03497.6 -07.6492 26276.0
 01 11 2013  17 26  -21.0527 26042.1 -03497.5 -07.6492 26276.0
 01 11 2013  17 27  -21.0525 26041.8 -03497.5 -07.6492 26275.6
 01 11 2013  17 28  -21.0525 26041.7 -03497.5 -07.6493 26275.6
 01 11 2013  17 29  -21.0528 26041.9 -03497.7 -07.6497 26275.7
 01 11 2013  17 30  -21.0529 26042.0 -03497.9 -07.6499 26275.9
 01 11 2013  17 31  -21.0529 26042.1 -03497.9 -07.6500 26276.0
 01 11 2013  17 32  -21.0529 26042.2 -03497.9 -07.6501 26276.0
 01 11 2013  17 33  -21.0528 26042.1 -03497.9 -07.6501 26276.0
 01 11 2013  17 34  -21.0526 26041.9 -03497.9 -07.6500 26275.8
 01 11 2013  17 35  -21.0524 26041.9 -03497.9 -07.6500 26275.7
 01 11 2013  17 36  -21.0524 26041.7 -03497.9 -07.6500 26275.5
 01 11 2013  17 37  -21.0524 26041.5 -03497.8 -07.6500 26275.3
 01 11 2013  17 38  -21.0526 26041.2 -03497.8 -07.6499 26275.1
 01 11 2013  17 39  -21.0525 26041.0 -03497.6 -07.6498 26274.8
 01 11 2013  17 40  -21.0525 26040.7 -03497.6 -07.6497 26274.5
 01 11 2013  17 41  -21.0526 26040.7 -03497.6 -07.6497 26274.5
 01 11 2013  17 42  -21.0527 26040.8 -03497.7 -07.6500 26274.7
 01 11 2013  17 43  -21.0528 26040.8 -03497.7 -07.6499 26274.7
 01 11 2013  17 44  -21.0530 26041.0 -03497.7 -07.6500 26274.8
 01 11 2013  17 45  -21.0530 26041.1 -03497.7 -07.6499 26274.9
 01 11 2013  17 46  -21.0527 26041.0 -03497.7 -07.6498 26274.8
 01 11 2013  17 47  -21.0528 26041.0 -03497.6 -07.6497 26274.9
 01 11 2013  17 48  -21.0530 26041.0 -03497.5 -07.6495 26274.8
 01 11 2013  17 49  -21.0530 26040.5 -03497.3 -07.6491 26274.3
 01 11 2013  17 50  -21.0531 26040.4 -03497.2 -07.6490 26274.2
 01 11 2013  17 51  -21.0533 26040.3 -03497.1 -07.6488 26274.0
 01 11 2013  17 52  -21.0534 26040.2 -03497.0 -07.6486 26274.0
 01 11 2013  17 53  -21.0535 26040.1 -03497.0 -07.6485 26273.9
 01 11 2013  17 54  -21.0533 26039.8 -03496.8 -07.6483 26273.6
 01 11 2013  17 55  -21.0531 26039.6 -03496.7 -07.6480 26273.4
 01 11 2013  17 56  -21.0532 26039.6 -03496.7 -07.6481 26273.4
 01 11 2013  17 57  -21.0533 26039.7 -03496.7 -07.6481 26273.4
 01 11 2013  17 58  -21.0535 26039.6 -03496.6 -07.6479 26273.3
 01 11 2013  17 59  -21.0539 26039.6 -03496.6 -07.6479 26273.4
 01 11 2013  18 00  -21.0539 26039.3 -03496.4 -07.6476 26273.0
 01 11 2013  18 01  -21.0538 26039.1 -03496.2 -07.6472 26272.8
 01 11 2013  18 02  -21.0535 26038.6 -03495.9 -07.6467 26272.2
 01 11 2013  18 03  -21.0535 26038.0 -03495.7 -07.6464 26271.6
 01 11 2013  18 04  -21.0537 26037.6 -03495.6 -07.6463 26271.2
 01 11 2013  18 05  -21.0535 26037.3 -03495.5 -07.6462 26270.9
 01 11 2013  18 06  -21.0534 26037.1 -03495.4 -07.6462 26270.7
 01 11 2013  18 07  -21.0537 26037.3 -03495.6 -07.6464 26270.9
 01 11 2013  18 08  -21.0536 26037.3 -03495.6 -07.6464 26270.9
 01 11 2013  18 09  -21.0535 26037.3 -03495.6 -07.6463 26270.9
 01 11 2013  18 10  -21.0535 26037.4 -03495.6 -07.6464 26271.0
 01 11 2013  18 11  -21.0537 26037.4 -03495.5 -07.6463 26271.0
 01 11 2013  18 12  -21.0539 26037.4 -03495.6 -07.6463 26271.0
 01 11 2013  18 13  -21.0540 26037.5 -03495.5 -07.6462 26271.1
 01 11 2013  18 14  -21.0542 26037.6 -03495.5 -07.6462 26271.2
 01 11 2013  18 15  -21.0542 26037.5 -03495.4 -07.6460 26271.1
 01 11 2013  18 16  -21.0541 26037.3 -03495.3 -07.6458 26270.8
 01 11 2013  18 17  -21.0543 26037.1 -03495.2 -07.6457 26270.7
 01 11 2013  18 18  -21.0545 26036.9 -03495.1 -07.6455 26270.5
 01 11 2013  18 19  -21.0544 26036.7 -03495.0 -07.6454 26270.2
 01 11 2013  18 20  -21.0542 26036.5 -03494.9 -07.6452 26270.0
 01 11 2013  18 21  -21.0542 26036.3 -03494.9 -07.6451 26269.8
 01 11 2013  18 22  -21.0544 26036.0 -03494.8 -07.6451 26269.5
 01 11 2013  18 23  -21.0546 26035.7 -03494.7 -07.6449 26269.2
 01 11 2013  18 24  -21.0549 26035.4 -03494.5 -07.6447 26268.8
 01 11 2013  18 25  -21.0550 26035.2 -03494.6 -07.6448 26268.7
 01 11 2013  18 26  -21.0555 26035.0 -03494.5 -07.6448 26268.5
 01 11 2013  18 27  -21.0558 26034.8 -03494.4 -07.6446 26268.2
 01 11 2013  18 28  -21.0564 26034.5 -03494.3 -07.6445 26268.0
 01 11 2013  18 29  -21.0567 26034.3 -03494.2 -07.6444 26267.8
 01 11 2013  18 30  -21.0570 26034.2 -03494.2 -07.6443 26267.7
 01 11 2013  18 31  -21.0573 26034.3 -03494.2 -07.6443 26267.7
 01 11 2013  18 32  -21.0578 26034.3 -03494.2 -07.6442 26267.8
 01 11 2013  18 33  -21.0580 26034.1 -03494.1 -07.6441 26267.5
 01 11 2013  18 34  -21.0581 26033.9 -03493.9 -07.6438 26267.3
 01 11 2013  18 35  -21.0585 26033.9 -03493.9 -07.6437 26267.3
 01 11 2013  18 36  -21.0587 26033.5 -03493.7 -07.6434 26266.9
 01 11 2013  18 37  -21.0587 26033.0 -03493.4 -07.6430 26266.3
 01 11 2013  18 38  -21.0591 26032.8 -03493.4 -07.6429 26266.2
 01 11 2013  18 39  -21.0595 26032.8 -03493.3 -07.6428 26266.1
 01 11 2013  18 40  -21.0596 26032.4 -03493.2 -07.6426 26265.8
 01 11 2013  18 41  -21.0597 26032.3 -03493.1 -07.6424 26265.6
 01 11 2013  18 42  -21.0598 26032.3 -03493.0 -07.6423 26265.6
 01 11 2013  18 43  -21.0597 26032.4 -03493.0 -07.6422 26265.6
 01 11 2013  18 44  -21.0597 26032.2 -03492.9 -07.6421 26265.5
 01 11 2013  18 45  -21.0597 26032.3 -03492.9 -07.6421 26265.6
 01 11 2013  18 46  -21.0598 26032.5 -03492.9 -07.6420 26265.8
 01 11 2013  18 47  -21.0596 26032.3 -03492.7 -07.6417 26265.6
 01 11 2013  18 48  -21.0595 26032.2 -03492.6 -07.6414 26265.4
 01 11 2013  18 49  -21.0594 26031.8 -03492.4 -07.6411 26265.0
 01 11 2013  18 50  -21.0594 26031.5 -03492.3 -07.6409 26264.7
 01 11 2013  18 51  -21.0591 26031.2 -03492.1 -07.6407 26264.4
 01 11 2013  18 52  -21.0590 26030.9 -03492.1 -07.6406 26264.1
 01 11 2013  18 53  -21.0593 26030.9 -03492.0 -07.6406 26264.1
 01 11 2013  18 54  -21.0595 26030.7 -03492.0 -07.6406 26263.9
 01 11 2013  18 55  -21.0590 26030.5 -03491.9 -07.6404 26263.7
 01 11 2013  18 56  -21.0588 26030.5 -03491.9 -07.6405 26263.6
 01 11 2013  18 57  -21.0589 26030.2 -03491.8 -07.6404 26263.3
 01 11 2013  18 58  -21.0589 26029.9 -03491.7 -07.6402 26263.0
 01 11 2013  18 59  -21.0587 26029.7 -03491.7 -07.6402 26262.8
 01 11 2013  19 00  -21.0586 26029.5 -03491.7 -07.6402 26262.7
 01 11 2013  19 01  -21.0585 26029.2 -03491.6 -07.6400 26262.3
 01 11 2013  19 02  -21.0583 26028.9 -03491.5 -07.6400 26262.0
 01 11 2013  19 03  -21.0580 26028.8 -03491.4 -07.6399 26261.9
 01 11 2013  19 04  -21.0580 26028.8 -03491.4 -07.6399 26261.9
 01 11 2013  19 05  -21.0577 26028.8 -03491.5 -07.6400 26261.9
 01 11 2013  19 06  -21.0576 26028.6 -03491.4 -07.6398 26261.7
 01 11 2013  19 07  -21.0575 26028.6 -03491.3 -07.6398 26261.7
 01 11 2013  19 08  -21.0574 26028.6 -03491.4 -07.6398 26261.7
 01 11 2013  19 09  -21.0573 26028.5 -03491.4 -07.6398 26261.6
 01 11 2013  19 10  -21.0572 26028.5 -03491.3 -07.6398 26261.6
 01 11 2013  19 11  -21.0570 26028.3 -03491.3 -07.6396 26261.4
 01 11 2013  19 12  -21.0569 26028.1 -03491.2 -07.6396 26261.2
 01 11 2013  19 13  -21.0568 26027.9 -03491.1 -07.6395 26261.0
 01 11 2013  19 14  -21.0568 26027.7 -03491.1 -07.6395 26260.8
 01 11 2013  19 15  -21.0568 26027.5 -03491.0 -07.6394 26260.6
 01 11 2013  19 16  -21.0568 26027.1 -03490.9 -07.6393 26260.2
 01 11 2013  19 17  -21.0569 26026.7 -03490.8 -07.6391 26259.8
 01 11 2013  19 18  -21.0571 26026.5 -03490.7 -07.6390 26259.6
 01 11 2013  19 19  -21.0572 26026.4 -03490.7 -07.6390 26259.4
 01 11 2013  19 20  -21.0572 26026.2 -03490.7 -07.6390 26259.2
 01 11 2013  19 21  -21.0569 26025.8 -03490.5 -07.6388 26258.9
 01 11 2013  19 22  -21.0568 26025.8 -03490.5 -07.6387 26258.8
 01 11 2013  19 23  -21.0566 26025.5 -03490.5 -07.6387 26258.6
 01 11 2013  19 24  -21.0564 26025.4 -03490.5 -07.6388 26258.5
 01 11 2013  19 25  -21.0564 26025.3 -03490.4 -07.6388 26258.4
 01 11 2013  19 26  -21.0561 26025.2 -03490.4 -07.6387 26258.2
 01 11 2013  19 27  -21.0560 26025.1 -03490.4 -07.6387 26258.1
 01 11 2013  19 28  -21.0559 26025.0 -03490.4 -07.6388 26258.0
 01 11 2013  19 29  -21.0593 26024.6 -03490.1 -07.6382 26257.6
 01 11 2013  19 30  -21.0601 26024.4 -03490.1 -07.6383 26257.4
 01 11 2013  19 31  -21.0602 26024.2 -03490.1 -07.6383 26257.2
 01 11 2013  19 32  -21.0602 26024.0 -03490.1 -07.6383 26256.9
 01 11 2013  19 33  -21.0582 26023.8 -03490.1 -07.6384 26256.8
 01 11 2013  19 34  -21.0557 26024.0 -03490.3 -07.6389 26257.0
 01 11 2013  19 35  -21.0556 26023.9 -03490.3 -07.6390 26256.9
 01 11 2013  19 36  -21.0555 26023.9 -03490.4 -07.6391 26256.9
 01 11 2013  19 37  -21.0557 26023.9 -03490.5 -07.6393 26256.9
 01 11 2013  19 38  -21.0556 26023.6 -03490.4 -07.6391 26256.6
 01 11 2013  19 39  -21.0559 26023.4 -03490.3 -07.6391 26256.4
 01 11 2013  19 40  -21.0562 26023.4 -03490.4 -07.6393 26256.4
 01 11 2013  19 41  -21.0564 26023.1 -03490.4 -07.6393 26256.2
 01 11 2013  19 42  -21.0563 26022.9 -03490.3 -07.6392 26256.0
 01 11 2013  19 43  -21.0561 26023.0 -03490.4 -07.6393 26256.0
 01 11 2013  19 44  -21.0558 26023.0 -03490.4 -07.6393 26256.1
 01 11 2013  19 45  -21.0555 26022.9 -03490.4 -07.6394 26256.0
 01 11 2013  19 46  -21.0552 26022.9 -03490.4 -07.6393 26255.9
 01 11 2013  19 47  -21.0550 26022.8 -03490.4 -07.6395 26255.9
 01 11 2013  19 48  -21.0549 26022.7 -03490.5 -07.6395 26255.8
 01 11 2013  19 49  -21.0546 26022.7 -03490.5 -07.6396 26255.7
 01 11 2013  19 50  -21.0545 26022.7 -03490.5 -07.6397 26255.8
 01 11 2013  19 51  -21.0545 26022.7 -03490.6 -07.6398 26255.7
 01 11 2013  19 52  -21.0558 26023.1 -03490.7 -07.6400 26256.2
 01 11 2013  19 53  -21.0572 26024.0 -03490.8 -07.6399 26257.1
 01 11 2013  19 54  -21.0588 26025.0 -03490.6 -07.6392 26258.0
 01 11 2013  19 55  -21.0599 26025.7 -03490.1 -07.6379 26258.7
 01 11 2013  19 56  -21.0601 26026.1 -03489.5 -07.6364 26259.0
 01 11 2013  19 57  -21.0598 26026.0 -03488.9 -07.6352 26258.8
 01 11 2013  19 58  -21.0594 26025.4 -03488.4 -07.6343 26258.2
 01 11 2013  19 59  -21.0585 26024.8 -03488.1 -07.6338 26257.5
 01 11 2013  20 00  -21.0576 26024.4 -03488.1 -07.6339 26257.1
 01 11 2013  20 01  -21.0568 26024.0 -03488.2 -07.6343 26256.7
 01 11 2013  20 02  -21.0559 26023.5 -03488.3 -07.6347 26256.3
 01 11 2013  20 03  -21.0548 26023.0 -03488.5 -07.6352 26255.8
 01 11 2013  20 04  -21.0539 26022.5 -03488.6 -07.6357 26255.3
 01 11 2013  20 05  -21.0529 26022.2 -03488.8 -07.6362 26255.0
 01 11 2013  20 06  -21.0522 26022.0 -03489.1 -07.6368 26254.9
 01 11 2013  20 07  -21.0515 26021.9 -03489.4 -07.6375 26254.8
 01 11 2013  20 08  -21.0508 26021.8 -03489.7 -07.6381 26254.7
 01 11 2013  20 09  -21.0504 26021.7 -03489.9 -07.6386 26254.7
 01 11 2013  20 10  -21.0499 26021.6 -03490.1 -07.6391 26254.6
 01 11 2013  20 11  -21.0494 26021.4 -03490.3 -07.6396 26254.4
 01 11 2013  20 12  -21.0491 26021.4 -03490.5 -07.6401 26254.4
 01 11 2013  20 13  -21.0488 26021.3 -03490.7 -07.6405 26254.4
 01 11 2013  20 14  -21.0485 26021.2 -03490.9 -07.6409 26254.4
 01 11 2013  20 15  -21.0482 26021.2 -03491.1 -07.6413 26254.3
 01 11 2013  20 16  -21.0482 26021.2 -03491.3 -07.6418 26254.4
 01 11 2013  20 17  -21.0480 26021.2 -03491.5 -07.6422 26254.4
 01 11 2013  20 18  -21.0478 26021.1 -03491.6 -07.6426 26254.3
 01 11 2013  20 19  -21.0474 26020.9 -03491.7 -07.6428 26254.2
 01 11 2013  20 20  -21.0470 26020.8 -03491.9 -07.6432 26254.1
 01 11 2013  20 21  -21.0466 26020.8 -03492.0 -07.6435 26254.1
 01 11 2013  20 22  -21.0461 26020.7 -03492.1 -07.6437 26253.9
 01 11 2013  20 23  -21.0457 26020.7 -03492.3 -07.6440 26254.0
 01 11 2013  20 24  -21.0453 26020.6 -03492.4 -07.6444 26254.0
 01 11 2013  20 25  -21.0449 26020.7 -03492.6 -07.6448 26254.0
 01 11 2013  20 26  -21.0445 26020.7 -03492.8 -07.6452 26254.1
 01 11 2013  20 27  -21.0442 26020.8 -03493.0 -07.6457 26254.2
 01 11 2013  20 28  -21.0437 26020.9 -03493.2 -07.6461 26254.3
 01 11 2013  20 29  -21.0435 26020.9 -03493.4 -07.6465 26254.4
 01 11 2013  20 30  -21.0432 26021.0 -03493.6 -07.6468 26254.4
 01 11 2013  20 31  -21.0429 26021.0 -03493.7 -07.6470 26254.5
 01 11 2013  20 32  -21.0423 26020.9 -03493.8 -07.6473 26254.4
 01 11 2013  20 33  -21.0422 26020.8 -03493.9 -07.6476 26254.3
 01 11 2013  20 34  -21.0420 26020.9 -03494.1 -07.6479 26254.5
 01 11 2013  20 35  -21.0418 26020.9 -03494.2 -07.6482 26254.5
 01 11 2013  20 36  -21.0415 26020.9 -03494.3 -07.6484 26254.5
 01 11 2013  20 37  -21.0411 26020.9 -03494.4 -07.6487 26254.5
 01 11 2013  20 38  -21.0407 26021.0 -03494.6 -07.6490 26254.6
 01 11 2013  20 39  -21.0403 26020.9 -03494.5 -07.6487 26254.5
 01 11 2013  20 40  -21.0399 26020.8 -03494.6 -07.6491 26254.5
 01 11 2013  20 41  -21.0397 26020.8 -03494.9 -07.6496 26254.4
 01 11 2013  20 42  -21.0397 26020.7 -03494.9 -07.6498 26254.4
 01 11 2013  20 43  -21.0393 26020.7 -03495.0 -07.6500 26254.4
 01 11 2013  20 44  -21.0391 26020.7 -03495.2 -07.6503 26254.4
 01 11 2013  20 45  -21.0390 26020.6 -03495.3 -07.6506 26254.3
 01 11 2013  20 46  -21.0387 26020.4 -03495.3 -07.6506 26254.1
 01 11 2013  20 47  -21.0385 26020.2 -03495.3 -07.6507 26253.9
 01 11 2013  20 48  -21.0382 26020.1 -03495.4 -07.6509 26253.8
 01 11 2013  20 49  -21.0381 26019.9 -03495.5 -07.6512 26253.7
 01 11 2013  20 50  -21.0378 26019.8 -03495.5 -07.6514 26253.5
 01 11 2013  20 51  -21.0375 26019.6 -03495.6 -07.6516 26253.3
 01 11 2013  20 52  -21.0374 26019.4 -03495.7 -07.6519 26253.2
 01 11 2013  20 53  -21.0374 26019.2 -03495.8 -07.6521 26253.0
 01 11 2013  20 54  -21.0374 26019.1 -03495.9 -07.6524 26252.9
 01 11 2013  20 55  -21.0373 26019.0 -03496.1 -07.6528 26252.9
 01 11 2013  20 56  -21.0372 26018.9 -03496.2 -07.6531 26252.8
 01 11 2013  20 57  -21.0373 26018.6 -03496.3 -07.6534 26252.5
 01 11 2013  20 58  -21.0373 26018.4 -03496.3 -07.6535 26252.3
 01 11 2013  20 59  -21.0373 26018.3 -03496.5 -07.6539 26252.2
 01 11 2013  21 00  -21.0374 26018.1 -03496.7 -07.6543 26252.1
 01 11 2013  21 01  -21.0375 26018.0 -03496.8 -07.6546 26251.9
 01 11 2013  21 02  -21.0377 26017.8 -03496.9 -07.6549 26251.8
 01 11 2013  21 03  -21.0379 26017.7 -03497.0 -07.6552 26251.7
 01 11 2013  21 04  -21.0380 26017.6 -03497.1 -07.6555 26251.6
 01 11 2013  21 05  -21.0380 26017.6 -03497.2 -07.6557 26251.5
 01 11 2013  21 06  -21.0382 26017.5 -03497.3 -07.6558 26251.5
 01 11 2013  21 07  -21.0383 26017.4 -03497.4 -07.6560 26251.4
 01 11 2013  21 08  -21.0384 26017.4 -03497.4 -07.6562 26251.4
 01 11 2013  21 09  -21.0384 26017.3 -03497.5 -07.6563 26251.3
 01 11 2013  21 10  -21.0383 26017.2 -03497.5 -07.6564 26251.3
 01 11 2013  21 11  -21.0382 26017.2 -03497.6 -07.6565 26251.2
 01 11 2013  21 12  -21.0380 26017.0 -03497.6 -07.6566 26251.0
 01 11 2013  21 13  -21.0379 26016.9 -03497.6 -07.6568 26250.9
 01 11 2013  21 14  -21.0377 26016.8 -03497.7 -07.6569 26250.9
 01 11 2013  21 15  -21.0374 26016.8 -03497.8 -07.6571 26250.9
 01 11 2013  21 16  -21.0371 26016.7 -03497.9 -07.6573 26250.8
 01 11 2013  21 17  -21.0368 26016.7 -03498.0 -07.6576 26250.8
 01 11 2013  21 18  -21.0365 26016.7 -03498.1 -07.6578 26250.9
 01 11 2013  21 19  -21.0362 26016.8 -03498.2 -07.6581 26250.9
 01 11 2013  21 20  -21.0358 26016.8 -03498.4 -07.6584 26250.9
 01 11 2013  21 21  -21.0354 26016.8 -03498.5 -07.6586 26251.0
 01 11 2013  21 22  -21.0351 26016.9 -03498.6 -07.6589 26251.0
 01 11 2013  21 23  -21.0348 26016.9 -03498.8 -07.6592 26251.1
 01 11 2013  21 24  -21.0344 26016.9 -03498.9 -07.6595 26251.1
 01 11 2013  21 25  -21.0342 26016.9 -03499.0 -07.6598 26251.1
 01 11 2013  21 26  -21.0340 26016.9 -03499.1 -07.6600 26251.2
 01 11 2013  21 27  -21.0338 26016.9 -03499.2 -07.6601 26251.1
 01 11 2013  21 28  -21.0335 26016.8 -03499.1 -07.6600 26251.1
 01 11 2013  21 29  -21.0333 26016.7 -03499.3 -07.6604 26251.0
 01 11 2013  21 30  -21.0330 26016.7 -03499.4 -07.6607 26251.0
 01 11 2013  21 31  -21.0327 26016.6 -03499.5 -07.6608 26250.9
 01 11 2013  21 32  -21.0325 26016.5 -03499.5 -07.6609 26250.8
 01 11 2013  21 33  -21.0322 26016.4 -03499.6 -07.6611 26250.7
 01 11 2013  21 34  -21.0319 26016.4 -03499.6 -07.6613 26250.7
 01 11 2013  21 35  -21.0317 26016.3 -03499.7 -07.6614 26250.6
 01 11 2013  21 36  -21.0314 26016.2 -03499.7 -07.6615 26250.5
 01 11 2013  21 37  -21.0312 26016.1 -03499.8 -07.6616 26250.5
 01 11 2013  21 38  -21.0310 26016.0 -03499.8 -07.6617 26250.4
 01 11 2013  21 39  -21.0308 26015.9 -03499.9 -07.6619 26250.3
 01 11 2013  21 40  -21.0305 26015.9 -03499.9 -07.6620 26250.3
 01 11 2013  21 41  -21.0303 26015.8 -03500.0 -07.6622 26250.2
 01 11 2013  21 42  -21.0301 26015.8 -03500.1 -07.6623 26250.1
 01 11 2013  21 43  -21.0299 26015.7 -03500.1 -07.6625 26250.1
 01 11 2013  21 44  -21.0297 26015.7 -03500.2 -07.6627 26250.1
 01 11 2013  21 45  -21.0294 26015.7 -03500.3 -07.6628 26250.1
 01 11 2013  21 46  -21.0293 26015.6 -03500.3 -07.6629 26250.0
 01 11 2013  21 47  -21.0291 26015.6 -03500.4 -07.6631 26250.0
 01 11 2013  21 48  -21.0290 26015.6 -03500.5 -07.6633 26250.0
 01 11 2013  21 49  -21.0289 26015.5 -03500.5 -07.6634 26250.0
 01 11 2013  21 50  -21.0287 26015.5 -03500.5 -07.6634 26250.0
 01 11 2013  21 51  -21.0286 26015.5 -03500.6 -07.6636 26250.0
 01 11 2013  21 52  -21.0284 26015.5 -03500.7 -07.6637 26250.0
 01 11 2013  21 53  -21.0283 26015.4 -03500.7 -07.6638 26249.9
 01 11 2013  21 54  -21.0281 26015.4 -03500.7 -07.6638 26249.8
 01 11 2013  21 55  -21.0280 26015.3 -03500.7 -07.6638 26249.8
 01 11 2013  21 56  -21.0278 26015.3 -03500.8 -07.6640 26249.8
 01 11 2013  21 57  -21.0276 26015.4 -03500.8 -07.6641 26249.8
 01 11 2013  21 58  -21.0275 26015.4 -03500.9 -07.6642 26249.9
 01 11 2013  21 59  -21.0274 26015.5 -03501.0 -07.6644 26250.0
 01 11 2013  22 00  -21.0272 26015.5 -03501.1 -07.6646 26250.0
 01 11 2013  22 01  -21.0271 26015.6 -03501.2 -07.6648 26250.1
 01 11 2013  22 02  -21.0270 26015.7 -03501.3 -07.6650 26250.3
 01 11 2013  22 03  -21.0267 26015.9 -03501.4 -07.6651 26250.4
 01 11 2013  22 04  -21.0266 26016.1 -03501.5 -07.6654 26250.6
 01 11 2013  22 05  -21.0265 26016.3 -03501.6 -07.6656 26250.9
 01 11 2013  22 06  -21.0262 26016.4 -03501.8 -07.6658 26251.0
 01 11 2013  22 07  -21.0260 26016.6 -03501.8 -07.6659 26251.2
 01 11 2013  22 08  -21.0258 26016.7 -03501.9 -07.6660 26251.3
 01 11 2013  22 09  -21.0256 26016.8 -03502.0 -07.6662 26251.4
 01 11 2013  22 10  -21.0253 26016.9 -03502.0 -07.6663 26251.6
 01 11 2013  22 11  -21.0251 26017.0 -03502.1 -07.6664 26251.7
 01 11 2013  22 12  -21.0248 26017.1 -03502.1 -07.6664 26251.7
 01 11 2013  22 13  -21.0247 26017.0 -03502.1 -07.6663 26251.6
 01 11 2013  22 14  -21.0245 26017.0 -03502.1 -07.6663 26251.6
 01 11 2013  22 15  -21.0243 26017.0 -03502.0 -07.6662 26251.6
 01 11 2013  22 16  -21.0242 26016.9 -03502.0 -07.6662 26251.5
 01 11 2013  22 17  -21.0241 26016.8 -03502.0 -07.6661 26251.4
 01 11 2013  22 18  -21.0240 26016.7 -03501.9 -07.6661 26251.3
 01 11 2013  22 19  -21.0240 26016.5 -03501.8 -07.6660 26251.2
 01 11 2013  22 20  -21.0238 26016.3 -03501.7 -07.6658 26250.9
 01 11 2013  22 21  -21.0237 26016.2 -03501.6 -07.6656 26250.8
 01 11 2013  22 22  -21.0237 26016.0 -03501.6 -07.6655 26250.6
 01 11 2013  22 23  -21.0237 26015.8 -03501.5 -07.6655 26250.4
 01 11 2013  22 24  -21.0236 26015.8 -03501.5 -07.6655 26250.3
 01 11 2013  22 25  -21.0235 26015.7 -03501.5 -07.6655 26250.3
 01 11 2013  22 26  -21.0233 26015.6 -03501.5 -07.6655 26250.2
 01 11 2013  22 27  -21.0232 26015.6 -03501.6 -07.6656 26250.2
 01 11 2013  22 28  -21.0231 26015.6 -03501.6 -07.6656 26250.2
 01 11 2013  22 29  -21.0230 26015.6 -03501.6 -07.6657 26250.2
 01 11 2013  22 30  -21.0229 26015.6 -03501.7 -07.6659 26250.2
 01 11 2013  22 31  -21.0228 26015.6 -03501.7 -07.6660 26250.2
 01 11 2013  22 32  -21.0227 26015.7 -03501.8 -07.6661 26250.3
 01 11 2013  22 33  -21.0225 26015.7 -03501.8 -07.6662 26250.3
 01 11 2013  22 34  -21.0223 26015.8 -03501.9 -07.6663 26250.4
 01 11 2013  22 35  -21.0221 26015.9 -03501.9 -07.6664 26250.5
 01 11 2013  22 36  -21.0219 26016.0 -03502.0 -07.6665 26250.6
 01 11 2013  22 37  -21.0219 26016.1 -03502.1 -07.6667 26250.8
 01 11 2013  22 38  -21.0219 26016.3 -03502.2 -07.6669 26251.0
 01 11 2013  22 39  -21.0219 26016.6 -03502.4 -07.6670 26251.3
 01 11 2013  22 40  -21.0219 26016.8 -03502.4 -07.6672 26251.5
 01 11 2013  22 41  -21.0219 26016.9 -03502.5 -07.6674 26251.6
 01 11 2013  22 42  -21.0220 26017.0 -03502.6 -07.6675 26251.7
 01 11 2013  22 43  -21.0220 26017.1 -03502.6 -07.6674 26251.8
 01 11 2013  22 44  -21.0219 26017.1 -03502.6 -07.6674 26251.8
 01 11 2013  22 45  -21.0217 26017.0 -03502.5 -07.6673 26251.7
 01 11 2013  22 46  -21.0215 26016.9 -03502.4 -07.6671 26251.6
 01 11 2013  22 47  -21.0214 26016.9 -03502.4 -07.6670 26251.5
 01 11 2013  22 48  -21.0212 26016.8 -03502.3 -07.6669 26251.5
 01 11 2013  22 49  -21.0210 26016.8 -03502.3 -07.6669 26251.5
 01 11 2013  22 50  -21.0208 26016.7 -03502.3 -07.6669 26251.4
 01 11 2013  22 51  -21.0207 26016.6 -03502.3 -07.6669 26251.3
 01 11 2013  22 52  -21.0206 26016.6 -03502.3 -07.6668 26251.3
 01 11 2013  22 53  -21.0206 26016.6 -03502.3 -07.6669 26251.3
 01 11 2013  22 54  -21.0206 26016.6 -03502.3 -07.6669 26251.3
 01 11 2013  22 55  -21.0204 26016.6 -03502.3 -07.6669 26251.3
 01 11 2013  22 56  -21.0204 26016.6 -03502.3 -07.6669 26251.3
 01 11 2013  22 57  -21.0204 26016.6 -03502.3 -07.6670 26251.3
 01 11 2013  22 58  -21.0203 26016.7 -03502.4 -07.6670 26251.3
 01 11 2013  22 59  -21.0203 26016.7 -03502.4 -07.6671 26251.4
 01 11 2013  23 00  -21.0203 26016.7 -03502.4 -07.6672 26251.4
 01 11 2013  23 01  -21.0204 26016.7 -03502.4 -07.6672 26251.4
 01 11 2013  23 02  -21.0203 26016.7 -03502.4 -07.6671 26251.4
 01 11 2013  23 03  -21.0203 26016.5 -03502.3 -07.6670 26251.2
 01 11 2013  23 04  -21.0204 26016.3 -03502.3 -07.6669 26251.0
 01 11 2013  23 05  -21.0205 26016.1 -03502.2 -07.6668 26250.8
 01 11 2013  23 06  -21.0206 26015.9 -03502.1 -07.6667 26250.6
 01 11 2013  23 07  -21.0207 26015.8 -03502.1 -07.6667 26250.4
 01 11 2013  23 08  -21.0208 26015.7 -03502.1 -07.6667 26250.4
 01 11 2013  23 09  -21.0211 26015.6 -03502.1 -07.6667 26250.3
 01 11 2013  23 10  -21.0212 26015.5 -03502.0 -07.6666 26250.2
 01 11 2013  23 11  -21.0212 26015.4 -03502.0 -07.6666 26250.0
 01 11 2013  23 12  -21.0211 26015.3 -03501.9 -07.6665 26249.9
 01 11 2013  23 13  -21.0210 26015.3 -03502.0 -07.6667 26250.0
 01 11 2013  23 14  -21.0209 26015.4 -03502.1 -07.6668 26250.1
 01 11 2013  23 15  -21.0209 26015.5 -03502.2 -07.6669 26250.2
 01 11 2013  23 16  -21.0209 26015.7 -03502.3 -07.6671 26250.4
 01 11 2013  23 17  -21.0208 26015.8 -03502.4 -07.6673 26250.5
 01 11 2013  23 18  -21.0208 26016.0 -03502.4 -07.6674 26250.6
 01 11 2013  23 19  -21.0206 26016.0 -03502.4 -07.6674 26250.6
 01 11 2013  23 20  -21.0205 26015.9 -03502.4 -07.6673 26250.6
 01 11 2013  23 21  -21.0204 26015.8 -03502.3 -07.6673 26250.5
 01 11 2013  23 22  -21.0203 26015.7 -03502.3 -07.6672 26250.3
 01 11 2013  23 23  -21.0203 26015.6 -03502.2 -07.6671 26250.3
 01 11 2013  23 24  -21.0203 26015.5 -03502.2 -07.6670 26250.2
 01 11 2013  23 25  -21.0202 26015.4 -03502.2 -07.6671 26250.1
 01 11 2013  23 26  -21.0202 26015.4 -03502.2 -07.6670 26250.1
 01 11 2013  23 27  -21.0203 26015.3 -03502.2 -07.6671 26250.0
 01 11 2013  23 28  -21.0204 26015.3 -03502.2 -07.6671 26250.0
 01 11 2013  23 29  -21.0205 26015.3 -03502.2 -07.6670 26249.9
 01 11 2013  23 30  -21.0205 26015.2 -03502.2 -07.6671 26249.9
 01 11 2013  23 31  -21.0205 26015.1 -03502.1 -07.6670 26249.8
 01 11 2013  23 32  -21.0206 26015.1 -03502.1 -07.6670 26249.7
 01 11 2013  23 33  -21.0206 26015.0 -03502.1 -07.6671 26249.7
 01 11 2013  23 34  -21.0206 26015.0 -03502.1 -07.6670 26249.7
 01 11 2013  23 35  -21.0206 26015.0 -03502.1 -07.6670 26249.7
 01 11 2013  23 36  -21.0206 26014.9 -03502.1 -07.6670 26249.6
 01 11 2013  23 37  -21.0206 26014.8 -03502.1 -07.6670 26249.5
 01 11 2013  23 38  -21.0207 26014.8 -03502.1 -07.6670 26249.4
 01 11 2013  23 39  -21.0207 26014.7 -03502.0 -07.6669 26249.3
 01 11 2013  23 40  -21.0207 26014.6 -03502.1 -07.6670 26249.3
 01 11 2013  23 41  -21.0205 26014.6 -03502.0 -07.6669 26249.2
 01 11 2013  23 42  -21.0204 26014.5 -03502.0 -07.6670 26249.2
 01 11 2013  23 43  -21.0202 26014.5 -03502.0 -07.6670 26249.1
 01 11 2013  23 44  -21.0202 26014.4 -03502.0 -07.6670 26249.0
 01 11 2013  23 45  -21.0201 26014.3 -03502.0 -07.6670 26249.0
 01 11 2013  23 46  -21.0199 26014.4 -03502.0 -07.6670 26249.0
 01 11 2013  23 47  -21.0198 26014.3 -03502.1 -07.6671 26249.0
 01 11 2013  23 48  -21.0198 26014.3 -03502.1 -07.6671 26248.9
 01 11 2013  23 49  -21.0198 26014.2 -03502.1 -07.6671 26248.9
 01 11 2013  23 50  -21.0199 26014.1 -03502.1 -07.6672 26248.8
 01 11 2013  23 51  -21.0198 26014.1 -03502.1 -07.6672 26248.8
 01 11 2013  23 52  -21.0197 26014.1 -03502.1 -07.6672 26248.8
 01 11 2013  23 53  -21.0197 26014.2 -03502.1 -07.6673 26248.9
 01 11 2013  23 54  -21.0197 26014.1 -03502.2 -07.6674 26248.8
 01 11 2013  23 55  -21.0196 26014.2 -03502.2 -07.6675 26248.9
 01 11 2013  23 56  -21.0196 26014.2 -03502.3 -07.6676 26248.9
 01 11 2013  23 57  -21.0196 26014.2 -03502.3 -07.6676 26248.9
