SAO LUIS EMBRACE-03 <213> 1 Min. Reported data

 DD MM YYYY  HH MM   D(Deg)  H(nT)   Z(nT)   I(Deg)   F(nT)

 01 08 2013  00 00  -21.0315 26030.1 -03470.0 -07.5932 26260.4
 01 08 2013  00 01  -21.0314 26030.2 -03470.1 -07.5933 26260.5
 01 08 2013  00 02  -21.0315 26030.2 -03470.1 -07.5933 26260.4
 01 08 2013  00 03  -21.0315 26030.2 -03470.1 -07.5933 26260.5
 01 08 2013  00 04  -21.0314 26030.3 -03470.1 -07.5933 26260.6
 01 08 2013  00 05  -21.0313 26030.4 -03470.2 -07.5934 26260.6
 01 08 2013  00 06  -21.0315 26030.5 -03470.2 -07.5935 26260.8
 01 08 2013  00 07  -21.0317 26030.5 -03470.2 -07.5936 26260.8
 01 08 2013  00 08  -21.0317 26030.4 -03470.2 -07.5935 26260.7
 01 08 2013  00 09  -21.0317 26030.2 -03470.1 -07.5933 26260.5
 01 08 2013  00 10  -21.0317 26030.1 -03470.0 -07.5932 26260.4
 01 08 2013  00 11  -21.0316 26030.1 -03470.0 -07.5931 26260.3
 01 08 2013  00 12  -21.0316 26030.1 -03470.0 -07.5932 26260.4
 01 08 2013  00 13  -21.0316 26030.2 -03470.1 -07.5932 26260.4
 01 08 2013  00 14  -21.0317 26030.3 -03470.1 -07.5934 26260.5
 01 08 2013  00 15  -21.0317 26030.4 -03470.2 -07.5934 26260.6
 01 08 2013  00 16  -21.0315 26030.4 -03470.2 -07.5935 26260.7
 01 08 2013  00 17  -21.0313 26030.4 -03470.2 -07.5934 26260.7
 01 08 2013  00 18  -21.0312 26030.3 -03470.1 -07.5934 26260.6
 01 08 2013  00 19  -21.0309 26030.3 -03470.1 -07.5933 26260.6
 01 08 2013  00 20  -21.0308 26030.2 -03470.1 -07.5932 26260.5
 01 08 2013  00 21  -21.0306 26030.2 -03470.0 -07.5932 26260.4
 01 08 2013  00 22  -21.0305 26030.0 -03470.0 -07.5932 26260.3
 01 08 2013  00 23  -21.0302 26029.9 -03470.0 -07.5931 26260.2
 01 08 2013  00 24  -21.0300 26029.9 -03470.0 -07.5931 26260.1
 01 08 2013  00 25  -21.0299 26029.8 -03470.0 -07.5932 26260.1
 01 08 2013  00 26  -21.0300 26029.9 -03470.1 -07.5933 26260.1
 01 08 2013  00 27  -21.0300 26029.9 -03470.1 -07.5934 26260.1
 01 08 2013  00 28  -21.0300 26029.9 -03470.1 -07.5935 26260.2
 01 08 2013  00 29  -21.0298 26029.9 -03470.1 -07.5935 26260.1
 01 08 2013  00 30  -21.0295 26029.9 -03470.1 -07.5935 26260.2
 01 08 2013  00 31  -21.0291 26029.7 -03470.1 -07.5935 26260.0
 01 08 2013  00 32  -21.0289 26029.6 -03470.0 -07.5934 26259.8
 01 08 2013  00 33  -21.0289 26029.5 -03470.0 -07.5934 26259.8
 01 08 2013  00 34  -21.0290 26029.5 -03470.1 -07.5936 26259.8
 01 08 2013  00 35  -21.0292 26029.5 -03470.2 -07.5937 26259.8
 01 08 2013  00 36  -21.0290 26029.5 -03470.2 -07.5938 26259.8
 01 08 2013  00 37  -21.0286 26029.6 -03470.2 -07.5938 26259.9
 01 08 2013  00 38  -21.0286 26029.6 -03470.2 -07.5938 26259.9
 01 08 2013  00 39  -21.0286 26029.5 -03470.2 -07.5938 26259.8
 01 08 2013  00 40  -21.0286 26029.4 -03470.2 -07.5937 26259.7
 01 08 2013  00 41  -21.0287 26029.2 -03470.1 -07.5936 26259.5
 01 08 2013  00 42  -21.0286 26029.0 -03469.9 -07.5934 26259.2
 01 08 2013  00 43  -21.0285 26028.8 -03469.9 -07.5932 26259.1
 01 08 2013  00 44  -21.0284 26028.6 -03469.8 -07.5932 26258.8
 01 08 2013  00 45  -21.0284 26028.4 -03469.8 -07.5931 26258.6
 01 08 2013  00 46  -21.0285 26028.3 -03469.7 -07.5931 26258.5
 01 08 2013  00 47  -21.0284 26028.2 -03469.8 -07.5932 26258.5
 01 08 2013  00 48  -21.0284 26028.1 -03469.8 -07.5932 26258.3
 01 08 2013  00 49  -21.0285 26028.1 -03469.8 -07.5933 26258.3
 01 08 2013  00 50  -21.0284 26028.1 -03469.9 -07.5934 26258.4
 01 08 2013  00 51  -21.0283 26028.1 -03469.9 -07.5935 26258.4
 01 08 2013  00 52  -21.0282 26028.1 -03469.9 -07.5936 26258.4
 01 08 2013  00 53  -21.0281 26028.1 -03470.0 -07.5937 26258.4
 01 08 2013  00 54  -21.0281 26028.2 -03470.1 -07.5938 26258.5
 01 08 2013  00 55  -21.0282 26028.4 -03470.2 -07.5941 26258.8
 01 08 2013  00 56  -21.0281 26028.6 -03470.3 -07.5943 26259.0
 01 08 2013  00 57  -21.0279 26028.8 -03470.4 -07.5944 26259.1
 01 08 2013  00 58  -21.0275 26028.8 -03470.4 -07.5945 26259.2
 01 08 2013  00 59  -21.0272 26028.9 -03470.4 -07.5945 26259.2
 01 08 2013  01 00  -21.0272 26029.0 -03470.6 -07.5947 26259.3
 01 08 2013  01 01  -21.0273 26029.1 -03470.7 -07.5949 26259.4
 01 08 2013  01 02  -21.0274 26029.3 -03470.7 -07.5950 26259.6
 01 08 2013  01 03  -21.0273 26029.4 -03470.8 -07.5951 26259.8
 01 08 2013  01 04  -21.0272 26029.6 -03470.9 -07.5952 26260.0
 01 08 2013  01 05  -21.0273 26029.6 -03470.9 -07.5953 26260.0
 01 08 2013  01 06  -21.0275 26029.6 -03470.9 -07.5952 26260.0
 01 08 2013  01 07  -21.0276 26029.6 -03470.8 -07.5951 26260.0
 01 08 2013  01 08  -21.0275 26029.5 -03470.7 -07.5949 26259.8
 01 08 2013  01 09  -21.0274 26029.3 -03470.6 -07.5947 26259.6
 01 08 2013  01 10  -21.0276 26029.0 -03470.5 -07.5945 26259.4
 01 08 2013  01 11  -21.0278 26028.9 -03470.4 -07.5944 26259.2
 01 08 2013  01 12  -21.0279 26028.7 -03470.3 -07.5943 26259.0
 01 08 2013  01 13  -21.0280 26028.6 -03470.2 -07.5941 26258.9
 01 08 2013  01 14  -21.0280 26028.5 -03470.2 -07.5941 26258.8
 01 08 2013  01 15  -21.0281 26028.4 -03470.2 -07.5941 26258.7
 01 08 2013  01 16  -21.0280 26028.4 -03470.2 -07.5941 26258.7
 01 08 2013  01 17  -21.0278 26028.3 -03470.2 -07.5941 26258.6
 01 08 2013  01 18  -21.0277 26028.3 -03470.2 -07.5941 26258.6
 01 08 2013  01 19  -21.0278 26028.3 -03470.2 -07.5942 26258.6
 01 08 2013  01 20  -21.0278 26028.3 -03470.2 -07.5942 26258.6
 01 08 2013  01 21  -21.0277 26028.3 -03470.3 -07.5943 26258.6
 01 08 2013  01 22  -21.0278 26028.3 -03470.3 -07.5943 26258.6
 01 08 2013  01 23  -21.0278 26028.2 -03470.2 -07.5942 26258.5
 01 08 2013  01 24  -21.0278 26028.1 -03470.2 -07.5942 26258.4
 01 08 2013  01 25  -21.0278 26028.1 -03470.2 -07.5943 26258.4
 01 08 2013  01 26  -21.0279 26028.0 -03470.2 -07.5942 26258.4
 01 08 2013  01 27  -21.0280 26027.9 -03470.2 -07.5942 26258.2
 01 08 2013  01 28  -21.0280 26027.9 -03470.1 -07.5941 26258.2
 01 08 2013  01 29  -21.0279 26027.8 -03470.1 -07.5940 26258.1
 01 08 2013  01 30  -21.0278 26027.6 -03470.0 -07.5939 26257.9
 01 08 2013  01 31  -21.0277 26027.5 -03470.0 -07.5938 26257.8
 01 08 2013  01 32  -21.0277 26027.4 -03470.0 -07.5938 26257.7
 01 08 2013  01 33  -21.0277 26027.4 -03469.9 -07.5938 26257.7
 01 08 2013  01 34  -21.0277 26027.3 -03469.9 -07.5937 26257.6
 01 08 2013  01 35  -21.0277 26027.2 -03469.9 -07.5937 26257.5
 01 08 2013  01 36  -21.0276 26027.2 -03469.9 -07.5937 26257.4
 01 08 2013  01 37  -21.0275 26027.1 -03469.8 -07.5937 26257.4
 01 08 2013  01 38  -21.0276 26027.0 -03469.8 -07.5937 26257.3
 01 08 2013  01 39  -21.0276 26026.9 -03469.8 -07.5936 26257.2
 01 08 2013  01 40  -21.0274 26026.8 -03469.8 -07.5936 26257.1
 01 08 2013  01 41  -21.0273 26026.8 -03469.7 -07.5935 26257.0
 01 08 2013  01 42  -21.0273 26026.7 -03469.7 -07.5935 26256.9
 01 08 2013  01 43  -21.0273 26026.6 -03469.7 -07.5935 26256.9
 01 08 2013  01 44  -21.0273 26026.5 -03469.7 -07.5935 26256.8
 01 08 2013  01 45  -21.0273 26026.5 -03469.7 -07.5935 26256.8
 01 08 2013  01 46  -21.0273 26026.4 -03469.7 -07.5935 26256.7
 01 08 2013  01 47  -21.0272 26026.4 -03469.7 -07.5935 26256.6
 01 08 2013  01 48  -21.0271 26026.4 -03469.7 -07.5935 26256.7
 01 08 2013  01 49  -21.0272 26026.4 -03469.7 -07.5935 26256.7
 01 08 2013  01 50  -21.0271 26026.4 -03469.7 -07.5935 26256.6
 01 08 2013  01 51  -21.0271 26026.4 -03469.7 -07.5936 26256.6
 01 08 2013  01 52  -21.0271 26026.5 -03469.8 -07.5937 26256.8
 01 08 2013  01 53  -21.0271 26026.6 -03469.8 -07.5938 26256.9
 01 08 2013  01 54  -21.0272 26026.7 -03469.9 -07.5939 26257.0
 01 08 2013  01 55  -21.0271 26026.8 -03469.9 -07.5939 26257.0
 01 08 2013  01 56  -21.0270 26026.8 -03469.9 -07.5938 26257.0
 01 08 2013  01 57  -21.0269 26026.7 -03469.9 -07.5938 26257.0
 01 08 2013  01 58  -21.0267 26026.7 -03469.8 -07.5938 26257.0
 01 08 2013  01 59  -21.0267 26026.8 -03469.8 -07.5937 26257.0
 01 08 2013  02 00  -21.0267 26026.8 -03469.9 -07.5939 26257.1
 01 08 2013  02 01  -21.0267 26026.8 -03469.9 -07.5939 26257.1
 01 08 2013  02 02  -21.0267 26026.8 -03469.9 -07.5939 26257.1
 01 08 2013  02 03  -21.0266 26027.0 -03469.9 -07.5939 26257.2
 01 08 2013  02 04  -21.0268 26027.1 -03470.0 -07.5941 26257.4
 01 08 2013  02 05  -21.0268 26027.1 -03470.0 -07.5940 26257.4
 01 08 2013  02 06  -21.0268 26027.1 -03470.0 -07.5940 26257.4
 01 08 2013  02 07  -21.0268 26027.0 -03469.9 -07.5939 26257.2
 01 08 2013  02 08  -21.0267 26026.8 -03469.8 -07.5937 26257.1
 01 08 2013  02 09  -21.0266 26026.6 -03469.7 -07.5936 26256.9
 01 08 2013  02 10  -21.0265 26026.5 -03469.7 -07.5935 26256.8
 01 08 2013  02 11  -21.0265 26026.4 -03469.6 -07.5934 26256.6
 01 08 2013  02 12  -21.0265 26026.3 -03469.6 -07.5934 26256.5
 01 08 2013  02 13  -21.0266 26026.1 -03469.6 -07.5934 26256.4
 01 08 2013  02 14  -21.0268 26026.0 -03469.5 -07.5933 26256.2
 01 08 2013  02 15  -21.0270 26025.9 -03469.5 -07.5933 26256.2
 01 08 2013  02 16  -21.0273 26025.9 -03469.5 -07.5934 26256.1
 01 08 2013  02 17  -21.0276 26025.9 -03469.6 -07.5934 26256.1
 01 08 2013  02 18  -21.0278 26025.9 -03469.6 -07.5934 26256.1
 01 08 2013  02 19  -21.0279 26025.8 -03469.6 -07.5935 26256.1
 01 08 2013  02 20  -21.0279 26025.8 -03469.5 -07.5934 26256.0
 01 08 2013  02 21  -21.0277 26025.7 -03469.5 -07.5933 26255.9
 01 08 2013  02 22  -21.0275 26025.6 -03469.4 -07.5933 26255.8
 01 08 2013  02 23  -21.0273 26025.5 -03469.4 -07.5932 26255.7
 01 08 2013  02 24  -21.0272 26025.5 -03469.4 -07.5933 26255.7
 01 08 2013  02 25  -21.0271 26025.5 -03469.5 -07.5933 26255.8
 01 08 2013  02 26  -21.0271 26025.7 -03469.6 -07.5935 26255.9
 01 08 2013  02 27  -21.0272 26025.7 -03469.6 -07.5936 26256.0
 01 08 2013  02 28  -21.0272 26025.8 -03469.7 -07.5937 26256.0
 01 08 2013  02 29  -21.0272 26025.8 -03469.7 -07.5936 26256.0
 01 08 2013  02 30  -21.0273 26025.7 -03469.6 -07.5936 26256.0
 01 08 2013  02 31  -21.0276 26025.7 -03469.6 -07.5936 26255.9
 01 08 2013  02 32  -21.0277 26025.6 -03469.6 -07.5936 26255.9
 01 08 2013  02 33  -21.0278 26025.7 -03469.6 -07.5936 26255.9
 01 08 2013  02 34  -21.0278 26025.5 -03469.6 -07.5935 26255.7
 01 08 2013  02 35  -21.0277 26025.6 -03469.6 -07.5936 26255.8
 01 08 2013  02 36  -21.0279 26025.5 -03469.6 -07.5935 26255.8
 01 08 2013  02 37  -21.0282 26025.4 -03469.6 -07.5935 26255.7
 01 08 2013  02 38  -21.0283 26025.4 -03469.5 -07.5935 26255.6
 01 08 2013  02 39  -21.0282 26025.3 -03469.5 -07.5934 26255.5
 01 08 2013  02 40  -21.0281 26025.3 -03469.5 -07.5934 26255.6
 01 08 2013  02 41  -21.0283 26025.3 -03469.5 -07.5934 26255.6
 01 08 2013  02 42  -21.0286 26025.3 -03469.5 -07.5935 26255.6
 01 08 2013  02 43  -21.0289 26025.4 -03469.6 -07.5936 26255.7
 01 08 2013  02 44  -21.0290 26025.3 -03469.6 -07.5936 26255.6
 01 08 2013  02 45  -21.0291 26025.2 -03469.5 -07.5935 26255.5
 01 08 2013  02 46  -21.0290 26025.4 -03469.6 -07.5936 26255.7
 01 08 2013  02 47  -21.0289 26025.4 -03469.6 -07.5936 26255.7
 01 08 2013  02 48  -21.0289 26025.4 -03469.6 -07.5936 26255.6
 01 08 2013  02 49  -21.0290 26025.4 -03469.6 -07.5936 26255.6
 01 08 2013  02 50  -21.0293 26025.4 -03469.6 -07.5937 26255.6
 01 08 2013  02 51  -21.0296 26025.4 -03469.7 -07.5938 26255.7
 01 08 2013  02 52  -21.0299 26025.4 -03469.6 -07.5937 26255.7
 01 08 2013  02 53  -21.0300 26025.3 -03469.6 -07.5937 26255.5
 01 08 2013  02 54  -21.0300 26025.1 -03469.5 -07.5935 26255.4
 01 08 2013  02 55  -21.0300 26025.0 -03469.4 -07.5934 26255.3
 01 08 2013  02 56  -21.0301 26024.8 -03469.4 -07.5933 26255.1
 01 08 2013  02 57  -21.0301 26024.8 -03469.3 -07.5932 26255.0
 01 08 2013  02 58  -21.0303 26024.7 -03469.4 -07.5933 26255.0
 01 08 2013  02 59  -21.0304 26024.8 -03469.4 -07.5934 26255.0
 01 08 2013  03 00  -21.0302 26024.8 -03469.4 -07.5933 26255.0
 01 08 2013  03 01  -21.0302 26024.7 -03469.4 -07.5934 26255.0
 01 08 2013  03 02  -21.0300 26024.9 -03469.4 -07.5935 26255.1
 01 08 2013  03 03  -21.0298 26024.9 -03469.5 -07.5936 26255.2
 01 08 2013  03 04  -21.0298 26025.0 -03469.6 -07.5937 26255.3
 01 08 2013  03 05  -21.0296 26025.2 -03469.6 -07.5938 26255.4
 01 08 2013  03 06  -21.0295 26025.3 -03469.7 -07.5939 26255.5
 01 08 2013  03 07  -21.0294 26025.3 -03469.8 -07.5940 26255.6
 01 08 2013  03 08  -21.0292 26025.4 -03469.8 -07.5941 26255.7
 01 08 2013  03 09  -21.0291 26025.7 -03469.9 -07.5942 26256.0
 01 08 2013  03 10  -21.0288 26026.0 -03470.1 -07.5946 26256.4
 01 08 2013  03 11  -21.0288 26025.8 -03470.0 -07.5945 26256.2
 01 08 2013  03 12  -21.0286 26026.1 -03470.1 -07.5945 26256.4
 01 08 2013  03 13  -21.0287 26026.2 -03470.2 -07.5947 26256.5
 01 08 2013  03 14  -21.0285 26026.4 -03470.3 -07.5948 26256.7
 01 08 2013  03 15  -21.0284 26027.1 -03470.5 -07.5952 26257.4
 01 08 2013  03 16  -21.0284 26027.3 -03470.7 -07.5955 26257.6
 01 08 2013  03 17  -21.0282 26027.3 -03470.7 -07.5954 26257.7
 01 08 2013  03 18  -21.0282 26027.3 -03470.6 -07.5953 26257.7
 01 08 2013  03 19  -21.0281 26027.9 -03470.8 -07.5956 26258.3
 01 08 2013  03 20  -21.0283 26027.6 -03470.7 -07.5954 26258.0
 01 08 2013  03 21  -21.0283 26027.6 -03470.7 -07.5953 26258.0
 01 08 2013  03 22  -21.0285 26027.7 -03470.6 -07.5952 26258.0
 01 08 2013  03 23  -21.0285 26027.9 -03470.7 -07.5953 26258.3
 01 08 2013  03 24  -21.0286 26028.3 -03470.9 -07.5955 26258.7
 01 08 2013  03 25  -21.0286 26028.6 -03471.0 -07.5957 26259.0
 01 08 2013  03 26  -21.0285 26028.7 -03471.0 -07.5957 26259.1
 01 08 2013  03 27  -21.0284 26029.1 -03471.1 -07.5958 26259.5
 01 08 2013  03 28  -21.0283 26029.0 -03471.1 -07.5958 26259.5
 01 08 2013  03 29  -21.0284 26028.9 -03470.9 -07.5955 26259.3
 01 08 2013  03 30  -21.0286 26029.2 -03471.0 -07.5956 26259.6
 01 08 2013  03 31  -21.0286 26029.3 -03471.0 -07.5955 26259.7
 01 08 2013  03 32  -21.0288 26029.1 -03470.9 -07.5954 26259.5
 01 08 2013  03 33  -21.0287 26029.2 -03470.9 -07.5953 26259.6
 01 08 2013  03 34  -21.0289 26029.0 -03470.8 -07.5951 26259.4
 01 08 2013  03 35  -21.0286 26029.1 -03470.7 -07.5950 26259.4
 01 08 2013  03 36  -21.0285 26028.9 -03470.6 -07.5949 26259.3
 01 08 2013  03 37  -21.0282 26028.9 -03470.6 -07.5947 26259.3
 01 08 2013  03 38  -21.0281 26028.7 -03470.5 -07.5947 26259.1
 01 08 2013  03 39  -21.0278 26028.6 -03470.4 -07.5945 26259.0
 01 08 2013  03 40  -21.0276 26028.6 -03470.4 -07.5945 26259.0
 01 08 2013  03 41  -21.0276 26028.8 -03470.5 -07.5946 26259.1
 01 08 2013  03 42  -21.0274 26029.1 -03470.7 -07.5950 26259.5
 01 08 2013  03 43  -21.0273 26029.6 -03471.0 -07.5955 26260.0
 01 08 2013  03 44  -21.0270 26030.3 -03471.3 -07.5959 26260.7
 01 08 2013  03 45  -21.0270 26030.6 -03471.5 -07.5962 26261.1
 01 08 2013  03 46  -21.0269 26031.4 -03471.8 -07.5968 26261.9
 01 08 2013  03 47  -21.0269 26032.0 -03472.1 -07.5971 26262.6
 01 08 2013  03 48  -21.0269 26032.4 -03472.3 -07.5974 26263.0
 01 08 2013  03 49  -21.0267 26032.9 -03472.4 -07.5975 26263.5
 01 08 2013  03 50  -21.0271 26033.3 -03472.6 -07.5978 26263.9
 01 08 2013  03 51  -21.0269 26033.5 -03472.6 -07.5978 26264.1
 01 08 2013  03 52  -21.0265 26033.8 -03472.6 -07.5977 26264.4
 01 08 2013  03 53  -21.0262 26033.9 -03472.5 -07.5976 26264.5
 01 08 2013  03 54  -21.0262 26033.8 -03472.4 -07.5974 26264.4
 01 08 2013  03 55  -21.0259 26034.0 -03472.4 -07.5973 26264.6
 01 08 2013  03 56  -21.0260 26034.0 -03472.4 -07.5972 26264.5
 01 08 2013  03 57  -21.0260 26034.2 -03472.4 -07.5971 26264.7
 01 08 2013  03 58  -21.0262 26034.2 -03472.3 -07.5971 26264.7
 01 08 2013  03 59  -21.0263 26034.0 -03472.3 -07.5969 26264.6
 01 08 2013  04 00  -21.0264 26034.0 -03472.1 -07.5967 26264.5
 01 08 2013  04 01  -21.0265 26033.9 -03472.1 -07.5965 26264.4
 01 08 2013  04 02  -21.0266 26033.8 -03472.0 -07.5964 26264.3
 01 08 2013  04 03  -21.0271 26033.8 -03472.0 -07.5963 26264.3
 01 08 2013  04 04  -21.0274 26033.8 -03471.9 -07.5962 26264.3
 01 08 2013  04 05  -21.0280 26033.8 -03471.9 -07.5961 26264.2
 01 08 2013  04 06  -21.0286 26033.7 -03471.8 -07.5960 26264.2
 01 08 2013  04 07  -21.0288 26033.7 -03471.7 -07.5959 26264.2
 01 08 2013  04 08  -21.0289 26033.4 -03471.6 -07.5956 26263.9
 01 08 2013  04 09  -21.0289 26033.3 -03471.5 -07.5954 26263.8
 01 08 2013  04 10  -21.0289 26033.2 -03471.4 -07.5952 26263.6
 01 08 2013  04 11  -21.0291 26033.2 -03471.4 -07.5952 26263.6
 01 08 2013  04 12  -21.0292 26033.2 -03471.4 -07.5952 26263.7
 01 08 2013  04 13  -21.0290 26033.3 -03471.4 -07.5952 26263.7
 01 08 2013  04 14  -21.0291 26033.4 -03471.4 -07.5953 26263.8
 01 08 2013  04 15  -21.0294 26033.2 -03471.3 -07.5951 26263.6
 01 08 2013  04 16  -21.0293 26033.1 -03471.3 -07.5951 26263.5
 01 08 2013  04 17  -21.0292 26033.0 -03471.2 -07.5949 26263.4
 01 08 2013  04 18  -21.0295 26033.0 -03471.2 -07.5948 26263.4
 01 08 2013  04 19  -21.0297 26033.1 -03471.2 -07.5949 26263.5
 01 08 2013  04 20  -21.0299 26033.0 -03471.2 -07.5949 26263.4
 01 08 2013  04 21  -21.0302 26032.9 -03471.1 -07.5948 26263.3
 01 08 2013  04 22  -21.0304 26032.9 -03471.1 -07.5947 26263.2
 01 08 2013  04 23  -21.0306 26032.8 -03471.1 -07.5947 26263.2
 01 08 2013  04 24  -21.0306 26032.7 -03471.0 -07.5945 26263.1
 01 08 2013  04 25  -21.0304 26032.7 -03470.9 -07.5944 26263.1
 01 08 2013  04 26  -21.0303 26032.6 -03470.9 -07.5944 26263.0
 01 08 2013  04 27  -21.0299 26032.6 -03470.9 -07.5943 26262.9
 01 08 2013  04 28  -21.0295 26032.6 -03470.8 -07.5943 26263.0
 01 08 2013  04 29  -21.0289 26032.6 -03470.8 -07.5943 26263.0
 01 08 2013  04 30  -21.0286 26032.6 -03470.8 -07.5943 26263.0
 01 08 2013  04 31  -21.0284 26032.6 -03470.9 -07.5943 26263.0
 01 08 2013  04 32  -21.0281 26032.6 -03470.9 -07.5944 26262.9
 01 08 2013  04 33  -21.0279 26032.6 -03470.9 -07.5945 26262.9
 01 08 2013  04 34  -21.0278 26032.6 -03471.0 -07.5945 26262.9
 01 08 2013  04 35  -21.0277 26032.6 -03471.0 -07.5946 26263.0
 01 08 2013  04 36  -21.0275 26032.6 -03471.0 -07.5947 26263.0
 01 08 2013  04 37  -21.0273 26032.6 -03471.0 -07.5946 26263.0
 01 08 2013  04 38  -21.0271 26032.5 -03471.0 -07.5946 26262.9
 01 08 2013  04 39  -21.0270 26032.5 -03471.0 -07.5946 26262.9
 01 08 2013  04 40  -21.0271 26032.4 -03470.9 -07.5945 26262.7
 01 08 2013  04 41  -21.0272 26032.3 -03471.0 -07.5946 26262.7
 01 08 2013  04 42  -21.0273 26032.3 -03470.9 -07.5945 26262.6
 01 08 2013  04 43  -21.0275 26032.2 -03470.9 -07.5944 26262.6
 01 08 2013  04 44  -21.0276 26032.2 -03470.9 -07.5944 26262.5
 01 08 2013  04 45  -21.0276 26032.1 -03470.8 -07.5943 26262.4
 01 08 2013  04 46  -21.0273 26032.0 -03470.7 -07.5942 26262.3
 01 08 2013  04 47  -21.0270 26031.8 -03470.7 -07.5941 26262.2
 01 08 2013  04 48  -21.0265 26031.7 -03470.5 -07.5939 26262.0
 01 08 2013  04 49  -21.0260 26031.5 -03470.5 -07.5937 26261.8
 01 08 2013  04 50  -21.0256 26031.3 -03470.4 -07.5937 26261.7
 01 08 2013  04 51  -21.0255 26031.3 -03470.4 -07.5938 26261.6
 01 08 2013  04 52  -21.0254 26031.2 -03470.4 -07.5938 26261.5
 01 08 2013  04 53  -21.0255 26031.1 -03470.4 -07.5938 26261.4
 01 08 2013  04 54  -21.0255 26031.1 -03470.5 -07.5939 26261.4
 01 08 2013  04 55  -21.0255 26031.0 -03470.4 -07.5939 26261.3
 01 08 2013  04 56  -21.0256 26030.9 -03470.4 -07.5939 26261.2
 01 08 2013  04 57  -21.0259 26030.9 -03470.5 -07.5939 26261.2
 01 08 2013  04 58  -21.0260 26030.9 -03470.5 -07.5939 26261.2
 01 08 2013  04 59  -21.0262 26030.9 -03470.5 -07.5940 26261.2
 01 08 2013  05 00  -21.0264 26030.9 -03470.5 -07.5940 26261.2
 01 08 2013  05 01  -21.0269 26031.0 -03470.6 -07.5942 26261.3
 01 08 2013  05 02  -21.0273 26031.0 -03470.6 -07.5942 26261.3
 01 08 2013  05 03  -21.0276 26031.0 -03470.6 -07.5941 26261.3
 01 08 2013  05 04  -21.0281 26031.0 -03470.6 -07.5941 26261.3
 01 08 2013  05 05  -21.0285 26031.0 -03470.6 -07.5942 26261.3
 01 08 2013  05 06  -21.0290 26030.9 -03470.5 -07.5941 26261.2
 01 08 2013  05 07  -21.0294 26030.8 -03470.5 -07.5941 26261.2
 01 08 2013  05 08  -21.0298 26030.8 -03470.5 -07.5941 26261.1
 01 08 2013  05 09  -21.0302 26030.7 -03470.5 -07.5940 26261.1
 01 08 2013  05 10  -21.0305 26030.7 -03470.4 -07.5938 26261.0
 01 08 2013  05 11  -21.0307 26030.7 -03470.4 -07.5938 26261.0
 01 08 2013  05 12  -21.0310 26030.7 -03470.3 -07.5937 26261.0
 01 08 2013  05 13  -21.0313 26030.7 -03470.3 -07.5937 26261.0
 01 08 2013  05 14  -21.0315 26030.7 -03470.3 -07.5937 26261.0
 01 08 2013  05 15  -21.0316 26030.7 -03470.3 -07.5936 26261.0
 01 08 2013  05 16  -21.0316 26030.6 -03470.2 -07.5935 26260.9
 01 08 2013  05 17  -21.0318 26030.5 -03470.2 -07.5934 26260.8
 01 08 2013  05 18  -21.0321 26030.5 -03470.2 -07.5934 26260.8
 01 08 2013  05 19  -21.0321 26030.5 -03470.1 -07.5933 26260.7
 01 08 2013  05 20  -21.0323 26030.5 -03470.1 -07.5933 26260.8
 01 08 2013  05 21  -21.0323 26030.4 -03470.1 -07.5933 26260.7
 01 08 2013  05 22  -21.0323 26030.3 -03470.0 -07.5932 26260.5
 01 08 2013  05 23  -21.0323 26030.2 -03469.9 -07.5930 26260.4
 01 08 2013  05 24  -21.0323 26030.1 -03469.9 -07.5930 26260.3
 01 08 2013  05 25  -21.0324 26030.0 -03469.9 -07.5929 26260.3
 01 08 2013  05 26  -21.0325 26030.0 -03469.8 -07.5928 26260.2
 01 08 2013  05 27  -21.0324 26029.9 -03469.8 -07.5928 26260.2
 01 08 2013  05 28  -21.0322 26029.8 -03469.8 -07.5928 26260.1
 01 08 2013  05 29  -21.0321 26029.8 -03469.8 -07.5927 26260.0
 01 08 2013  05 30  -21.0321 26029.7 -03469.8 -07.5927 26259.9
 01 08 2013  05 31  -21.0319 26029.6 -03469.8 -07.5928 26259.9
 01 08 2013  05 32  -21.0317 26029.6 -03469.8 -07.5928 26259.8
 01 08 2013  05 33  -21.0316 26029.5 -03469.8 -07.5928 26259.7
 01 08 2013  05 34  -21.0314 26029.4 -03469.8 -07.5928 26259.6
 01 08 2013  05 35  -21.0313 26029.3 -03469.8 -07.5929 26259.5
 01 08 2013  05 36  -21.0313 26029.1 -03469.7 -07.5928 26259.3
 01 08 2013  05 37  -21.0313 26029.0 -03469.7 -07.5928 26259.3
 01 08 2013  05 38  -21.0312 26029.0 -03469.7 -07.5929 26259.2
 01 08 2013  05 39  -21.0311 26028.9 -03469.7 -07.5929 26259.1
 01 08 2013  05 40  -21.0307 26028.8 -03469.7 -07.5929 26259.0
 01 08 2013  05 41  -21.0304 26028.7 -03469.7 -07.5929 26259.0
 01 08 2013  05 42  -21.0303 26028.7 -03469.8 -07.5930 26259.0
 01 08 2013  05 43  -21.0303 26028.7 -03469.8 -07.5931 26258.9
 01 08 2013  05 44  -21.0302 26028.6 -03469.8 -07.5931 26258.9
 01 08 2013  05 45  -21.0300 26028.6 -03469.8 -07.5932 26258.9
 01 08 2013  05 46  -21.0298 26028.7 -03469.9 -07.5933 26258.9
 01 08 2013  05 47  -21.0297 26028.7 -03469.9 -07.5934 26259.0
 01 08 2013  05 48  -21.0298 26028.8 -03470.0 -07.5935 26259.1
 01 08 2013  05 49  -21.0300 26028.9 -03470.1 -07.5936 26259.2
 01 08 2013  05 50  -21.0301 26028.9 -03470.1 -07.5938 26259.2
 01 08 2013  05 51  -21.0302 26028.9 -03470.1 -07.5938 26259.2
 01 08 2013  05 52  -21.0303 26028.9 -03470.1 -07.5937 26259.2
 01 08 2013  05 53  -21.0304 26028.9 -03470.1 -07.5938 26259.2
 01 08 2013  05 54  -21.0306 26029.0 -03470.1 -07.5937 26259.3
 01 08 2013  05 55  -21.0307 26028.9 -03470.1 -07.5938 26259.2
 01 08 2013  05 56  -21.0308 26028.9 -03470.1 -07.5938 26259.2
 01 08 2013  05 57  -21.0308 26028.9 -03470.1 -07.5937 26259.2
 01 08 2013  05 58  -21.0307 26028.9 -03470.1 -07.5937 26259.2
 01 08 2013  05 59  -21.0306 26028.8 -03470.0 -07.5935 26259.1
 01 08 2013  06 00  -21.0305 26028.8 -03470.0 -07.5935 26259.1
 01 08 2013  06 01  -21.0306 26028.7 -03470.0 -07.5935 26259.0
 01 08 2013  06 02  -21.0306 26028.7 -03470.0 -07.5935 26259.0
 01 08 2013  06 03  -21.0307 26028.7 -03470.0 -07.5936 26258.9
 01 08 2013  06 04  -21.0308 26028.7 -03470.0 -07.5936 26258.9
 01 08 2013  06 05  -21.0307 26028.6 -03470.0 -07.5935 26258.9
 01 08 2013  06 06  -21.0307 26028.6 -03470.0 -07.5935 26258.9
 01 08 2013  06 07  -21.0305 26028.5 -03470.0 -07.5935 26258.8
 01 08 2013  06 08  -21.0303 26028.4 -03469.9 -07.5935 26258.7
 01 08 2013  06 09  -21.0302 26028.4 -03469.9 -07.5935 26258.6
 01 08 2013  06 10  -21.0301 26028.3 -03469.9 -07.5936 26258.6
 01 08 2013  06 11  -21.0300 26028.3 -03470.0 -07.5936 26258.6
 01 08 2013  06 12  -21.0299 26028.4 -03470.0 -07.5937 26258.7
 01 08 2013  06 13  -21.0298 26028.5 -03470.1 -07.5938 26258.7
 01 08 2013  06 14  -21.0296 26028.5 -03470.1 -07.5939 26258.8
 01 08 2013  06 15  -21.0294 26028.5 -03470.2 -07.5940 26258.8
 01 08 2013  06 16  -21.0293 26028.5 -03470.2 -07.5941 26258.9
 01 08 2013  06 17  -21.0293 26028.6 -03470.2 -07.5941 26258.9
 01 08 2013  06 18  -21.0294 26028.6 -03470.3 -07.5942 26258.9
 01 08 2013  06 19  -21.0294 26028.6 -03470.3 -07.5942 26259.0
 01 08 2013  06 20  -21.0294 26028.7 -03470.3 -07.5943 26259.0
 01 08 2013  06 21  -21.0295 26028.7 -03470.4 -07.5944 26259.1
 01 08 2013  06 22  -21.0295 26028.8 -03470.4 -07.5945 26259.1
 01 08 2013  06 23  -21.0296 26028.8 -03470.5 -07.5946 26259.2
 01 08 2013  06 24  -21.0297 26028.9 -03470.5 -07.5946 26259.3
 01 08 2013  06 25  -21.0299 26029.0 -03470.6 -07.5947 26259.4
 01 08 2013  06 26  -21.0300 26029.2 -03470.6 -07.5948 26259.6
 01 08 2013  06 27  -21.0302 26029.4 -03470.7 -07.5949 26259.7
 01 08 2013  06 28  -21.0303 26029.6 -03470.8 -07.5950 26259.9
 01 08 2013  06 29  -21.0304 26029.6 -03470.8 -07.5950 26260.0
 01 08 2013  06 30  -21.0305 26029.6 -03470.8 -07.5950 26260.0
 01 08 2013  06 31  -21.0303 26029.7 -03470.8 -07.5950 26260.1
 01 08 2013  06 32  -21.0303 26029.7 -03470.8 -07.5949 26260.1
 01 08 2013  06 33  -21.0303 26029.7 -03470.7 -07.5949 26260.1
 01 08 2013  06 34  -21.0303 26029.7 -03470.8 -07.5949 26260.1
 01 08 2013  06 35  -21.0302 26029.8 -03470.8 -07.5949 26260.2
 01 08 2013  06 36  -21.0302 26029.8 -03470.7 -07.5948 26260.2
 01 08 2013  06 37  -21.0301 26029.8 -03470.7 -07.5948 26260.2
 01 08 2013  06 38  -21.0299 26029.9 -03470.7 -07.5948 26260.3
 01 08 2013  06 39  -21.0298 26029.7 -03470.7 -07.5947 26260.1
 01 08 2013  06 40  -21.0297 26029.7 -03470.6 -07.5946 26260.1
 01 08 2013  06 41  -21.0296 26029.6 -03470.6 -07.5946 26260.0
 01 08 2013  06 42  -21.0295 26029.6 -03470.6 -07.5946 26260.0
 01 08 2013  06 43  -21.0294 26029.5 -03470.6 -07.5946 26259.9
 01 08 2013  06 44  -21.0292 26029.6 -03470.5 -07.5945 26259.9
 01 08 2013  06 45  -21.0291 26029.6 -03470.5 -07.5945 26259.9
 01 08 2013  06 46  -21.0289 26029.6 -03470.6 -07.5945 26260.0
 01 08 2013  06 47  -21.0289 26029.7 -03470.6 -07.5946 26260.0
 01 08 2013  06 48  -21.0289 26029.8 -03470.7 -07.5947 26260.1
 01 08 2013  06 49  -21.0289 26029.9 -03470.8 -07.5949 26260.2
 01 08 2013  06 50  -21.0287 26029.9 -03470.8 -07.5949 26260.3
 01 08 2013  06 51  -21.0286 26030.0 -03470.8 -07.5949 26260.3
 01 08 2013  06 52  -21.0284 26029.9 -03470.7 -07.5948 26260.3
 01 08 2013  06 53  -21.0281 26029.8 -03470.6 -07.5946 26260.1
 01 08 2013  06 54  -21.0278 26029.5 -03470.6 -07.5945 26259.9
 01 08 2013  06 55  -21.0276 26029.4 -03470.5 -07.5945 26259.7
 01 08 2013  06 56  -21.0274 26029.3 -03470.4 -07.5943 26259.6
 01 08 2013  06 57  -21.0273 26029.1 -03470.4 -07.5942 26259.4
 01 08 2013  06 58  -21.0270 26029.0 -03470.3 -07.5941 26259.3
 01 08 2013  06 59  -21.0268 26028.9 -03470.2 -07.5940 26259.2
 01 08 2013  07 00  -21.0264 26028.7 -03470.2 -07.5940 26259.0
 01 08 2013  07 01  -21.0260 26028.6 -03470.2 -07.5939 26258.9
 01 08 2013  07 02  -21.0257 26028.6 -03470.2 -07.5940 26258.9
 01 08 2013  07 03  -21.0254 26028.6 -03470.2 -07.5941 26258.9
 01 08 2013  07 04  -21.0253 26028.6 -03470.3 -07.5942 26258.9
 01 08 2013  07 05  -21.0251 26028.6 -03470.3 -07.5943 26259.0
 01 08 2013  07 06  -21.0249 26028.5 -03470.3 -07.5944 26258.9
 01 08 2013  07 07  -21.0247 26028.4 -03470.3 -07.5944 26258.8
 01 08 2013  07 08  -21.0247 26028.4 -03470.4 -07.5944 26258.7
 01 08 2013  07 09  -21.0246 26028.3 -03470.4 -07.5945 26258.6
 01 08 2013  07 10  -21.0247 26028.3 -03470.4 -07.5945 26258.6
 01 08 2013  07 11  -21.0248 26028.3 -03470.4 -07.5946 26258.6
 01 08 2013  07 12  -21.0250 26028.3 -03470.5 -07.5947 26258.7
 01 08 2013  07 13  -21.0253 26028.4 -03470.6 -07.5949 26258.7
 01 08 2013  07 14  -21.0258 26028.5 -03470.7 -07.5951 26258.9
 01 08 2013  07 15  -21.0262 26028.6 -03470.7 -07.5952 26258.9
 01 08 2013  07 16  -21.0264 26028.6 -03470.8 -07.5952 26259.0
 01 08 2013  07 17  -21.0266 26028.6 -03470.8 -07.5952 26259.0
 01 08 2013  07 18  -21.0268 26028.6 -03470.8 -07.5953 26259.0
 01 08 2013  07 19  -21.0270 26028.7 -03470.8 -07.5953 26259.1
 01 08 2013  07 20  -21.0272 26028.8 -03470.8 -07.5954 26259.1
 01 08 2013  07 21  -21.0274 26028.8 -03470.9 -07.5954 26259.2
 01 08 2013  07 22  -21.0276 26028.8 -03470.9 -07.5954 26259.2
 01 08 2013  07 23  -21.0276 26028.8 -03470.9 -07.5955 26259.2
 01 08 2013  07 24  -21.0277 26028.9 -03470.9 -07.5955 26259.3
 01 08 2013  07 25  -21.0278 26029.0 -03471.0 -07.5956 26259.4
 01 08 2013  07 26  -21.0280 26029.1 -03471.0 -07.5957 26259.5
 01 08 2013  07 27  -21.0280 26029.2 -03471.1 -07.5958 26259.7
 01 08 2013  07 28  -21.0279 26029.3 -03471.1 -07.5958 26259.7
 01 08 2013  07 29  -21.0278 26029.3 -03471.1 -07.5957 26259.7
 01 08 2013  07 30  -21.0275 26029.3 -03471.1 -07.5958 26259.7
 01 08 2013  07 31  -21.0274 26029.3 -03471.1 -07.5958 26259.7
 01 08 2013  07 32  -21.0271 26029.2 -03471.1 -07.5958 26259.6
 01 08 2013  07 33  -21.0268 26029.2 -03471.1 -07.5958 26259.7
 01 08 2013  07 34  -21.0266 26029.2 -03471.1 -07.5959 26259.6
 01 08 2013  07 35  -21.0268 26029.3 -03471.2 -07.5960 26259.7
 01 08 2013  07 36  -21.0269 26029.3 -03471.3 -07.5961 26259.8
 01 08 2013  07 37  -21.0270 26029.3 -03471.3 -07.5962 26259.8
 01 08 2013  07 38  -21.0271 26029.3 -03471.3 -07.5962 26259.8
 01 08 2013  07 39  -21.0270 26029.4 -03471.3 -07.5962 26259.8
 01 08 2013  07 40  -21.0268 26029.3 -03471.3 -07.5961 26259.8
 01 08 2013  07 41  -21.0267 26029.2 -03471.3 -07.5961 26259.7
 01 08 2013  07 42  -21.0265 26029.2 -03471.2 -07.5961 26259.6
 01 08 2013  07 43  -21.0264 26029.1 -03471.2 -07.5961 26259.6
 01 08 2013  07 44  -21.0264 26029.1 -03471.3 -07.5962 26259.5
 01 08 2013  07 45  -21.0265 26029.1 -03471.3 -07.5963 26259.5
 01 08 2013  07 46  -21.0266 26029.1 -03471.3 -07.5963 26259.6
 01 08 2013  07 47  -21.0266 26029.1 -03471.4 -07.5964 26259.6
 01 08 2013  07 48  -21.0267 26029.1 -03471.3 -07.5964 26259.5
 01 08 2013  07 49  -21.0265 26029.0 -03471.3 -07.5963 26259.5
 01 08 2013  07 50  -21.0264 26029.0 -03471.3 -07.5963 26259.4
 01 08 2013  07 51  -21.0263 26029.0 -03471.3 -07.5963 26259.4
 01 08 2013  07 52  -21.0263 26028.9 -03471.3 -07.5963 26259.4
 01 08 2013  07 53  -21.0264 26028.9 -03471.3 -07.5964 26259.4
 01 08 2013  07 54  -21.0265 26028.9 -03471.4 -07.5965 26259.3
 01 08 2013  07 55  -21.0265 26028.8 -03471.3 -07.5964 26259.3
 01 08 2013  07 56  -21.0263 26028.8 -03471.3 -07.5964 26259.2
 01 08 2013  07 57  -21.0263 26028.7 -03471.3 -07.5964 26259.2
 01 08 2013  07 58  -21.0263 26028.7 -03471.3 -07.5965 26259.2
 01 08 2013  07 59  -21.0261 26028.7 -03471.3 -07.5965 26259.1
 01 08 2013  08 00  -21.0259 26028.6 -03471.3 -07.5965 26259.1
 01 08 2013  08 01  -21.0258 26028.6 -03471.3 -07.5965 26259.1
 01 08 2013  08 02  -21.0256 26028.6 -03471.4 -07.5965 26259.1
 01 08 2013  08 03  -21.0254 26028.6 -03471.4 -07.5965 26259.1
 01 08 2013  08 04  -21.0254 26028.6 -03471.4 -07.5965 26259.1
 01 08 2013  08 05  -21.0254 26028.6 -03471.4 -07.5966 26259.1
 01 08 2013  08 06  -21.0254 26028.7 -03471.5 -07.5967 26259.1
 01 08 2013  08 07  -21.0254 26028.7 -03471.5 -07.5968 26259.2
 01 08 2013  08 08  -21.0254 26028.7 -03471.5 -07.5968 26259.2
 01 08 2013  08 09  -21.0254 26028.7 -03471.5 -07.5969 26259.2
 01 08 2013  08 10  -21.0253 26028.7 -03471.5 -07.5969 26259.1
 01 08 2013  08 11  -21.0251 26028.6 -03471.5 -07.5968 26259.1
 01 08 2013  08 12  -21.0249 26028.6 -03471.5 -07.5968 26259.1
 01 08 2013  08 13  -21.0248 26028.7 -03471.5 -07.5969 26259.1
 01 08 2013  08 14  -21.0248 26028.7 -03471.5 -07.5969 26259.1
 01 08 2013  08 15  -21.0246 26028.7 -03471.5 -07.5969 26259.2
 01 08 2013  08 16  -21.0245 26028.7 -03471.5 -07.5969 26259.2
 01 08 2013  08 17  -21.0242 26028.7 -03471.6 -07.5969 26259.2
 01 08 2013  08 18  -21.0241 26028.7 -03471.5 -07.5969 26259.2
 01 08 2013  08 19  -21.0239 26028.8 -03471.6 -07.5970 26259.2
 01 08 2013  08 20  -21.0236 26028.8 -03471.6 -07.5969 26259.3
 01 08 2013  08 21  -21.0235 26028.9 -03471.6 -07.5969 26259.3
 01 08 2013  08 22  -21.0234 26028.9 -03471.6 -07.5970 26259.4
 01 08 2013  08 23  -21.0234 26028.9 -03471.6 -07.5971 26259.4
 01 08 2013  08 24  -21.0233 26028.9 -03471.6 -07.5970 26259.4
 01 08 2013  08 25  -21.0232 26028.9 -03471.7 -07.5971 26259.4
 01 08 2013  08 26  -21.0230 26029.0 -03471.7 -07.5972 26259.5
 01 08 2013  08 27  -21.0228 26029.0 -03471.7 -07.5971 26259.5
 01 08 2013  08 28  -21.0227 26029.0 -03471.7 -07.5972 26259.5
 01 08 2013  08 29  -21.0225 26029.0 -03471.7 -07.5971 26259.5
 01 08 2013  08 30  -21.0223 26029.0 -03471.7 -07.5971 26259.6
 01 08 2013  08 31  -21.0220 26029.0 -03471.7 -07.5971 26259.5
 01 08 2013  08 32  -21.0218 26029.0 -03471.6 -07.5970 26259.5
 01 08 2013  08 33  -21.0215 26028.9 -03471.6 -07.5970 26259.4
 01 08 2013  08 34  -21.0214 26028.9 -03471.6 -07.5969 26259.4
 01 08 2013  08 35  -21.0213 26028.8 -03471.6 -07.5970 26259.3
 01 08 2013  08 36  -21.0214 26028.8 -03471.6 -07.5970 26259.3
 01 08 2013  08 37  -21.0213 26028.8 -03471.6 -07.5970 26259.3
 01 08 2013  08 38  -21.0210 26028.8 -03471.6 -07.5970 26259.3
 01 08 2013  08 39  -21.0205 26028.8 -03471.6 -07.5970 26259.3
 01 08 2013  08 40  -21.0203 26028.8 -03471.6 -07.5969 26259.3
 01 08 2013  08 41  -21.0203 26028.8 -03471.6 -07.5970 26259.3
 01 08 2013  08 42  -21.0200 26028.8 -03471.6 -07.5970 26259.3
 01 08 2013  08 43  -21.0197 26028.7 -03471.6 -07.5970 26259.2
 01 08 2013  08 44  -21.0192 26028.7 -03471.6 -07.5969 26259.2
 01 08 2013  08 45  -21.0187 26028.7 -03471.6 -07.5969 26259.2
 01 08 2013  08 46  -21.0184 26028.8 -03471.6 -07.5970 26259.3
 01 08 2013  08 47  -21.0182 26028.7 -03471.6 -07.5970 26259.2
 01 08 2013  08 48  -21.0179 26028.7 -03471.6 -07.5970 26259.2
 01 08 2013  08 49  -21.0175 26028.6 -03471.6 -07.5969 26259.1
 01 08 2013  08 50  -21.0172 26028.5 -03471.5 -07.5969 26259.0
 01 08 2013  08 51  -21.0167 26028.5 -03471.6 -07.5970 26259.0
 01 08 2013  08 52  -21.0162 26028.4 -03471.5 -07.5970 26258.9
 01 08 2013  08 53  -21.0156 26028.4 -03471.5 -07.5969 26258.9
 01 08 2013  08 54  -21.0151 26028.3 -03471.5 -07.5968 26258.8
 01 08 2013  08 55  -21.0149 26028.2 -03471.6 -07.5971 26258.7
 01 08 2013  08 56  -21.0148 26028.3 -03471.6 -07.5972 26258.8
 01 08 2013  08 57  -21.0146 26028.3 -03471.6 -07.5972 26258.8
 01 08 2013  08 58  -21.0145 26028.2 -03471.7 -07.5973 26258.7
 01 08 2013  08 59  -21.0142 26028.3 -03471.7 -07.5973 26258.8
 01 08 2013  09 00  -21.0139 26028.2 -03471.7 -07.5973 26258.8
 01 08 2013  09 01  -21.0135 26028.1 -03471.7 -07.5973 26258.6
 01 08 2013  09 02  -21.0131 26027.9 -03471.6 -07.5973 26258.4
 01 08 2013  09 03  -21.0127 26027.9 -03471.7 -07.5974 26258.4
 01 08 2013  09 04  -21.0121 26027.9 -03471.7 -07.5975 26258.4
 01 08 2013  09 05  -21.0117 26027.9 -03471.8 -07.5977 26258.5
 01 08 2013  09 06  -21.0113 26027.9 -03471.9 -07.5978 26258.5
 01 08 2013  09 07  -21.0110 26028.0 -03472.0 -07.5981 26258.5
 01 08 2013  09 08  -21.0106 26028.1 -03472.1 -07.5983 26258.7
 01 08 2013  09 09  -21.0100 26028.1 -03472.2 -07.5985 26258.7
 01 08 2013  09 10  -21.0094 26028.0 -03472.3 -07.5987 26258.6
 01 08 2013  09 11  -21.0089 26028.0 -03472.4 -07.5989 26258.6
 01 08 2013  09 12  -21.0085 26027.9 -03472.5 -07.5991 26258.5
 01 08 2013  09 13  -21.0078 26027.8 -03472.5 -07.5993 26258.5
 01 08 2013  09 14  -21.0073 26027.8 -03472.7 -07.5996 26258.4
 01 08 2013  09 15  -21.0066 26027.8 -03472.8 -07.5999 26258.5
 01 08 2013  09 16  -21.0058 26027.9 -03472.9 -07.6002 26258.6
 01 08 2013  09 17  -21.0052 26027.9 -03473.1 -07.6004 26258.6
 01 08 2013  09 18  -21.0046 26027.8 -03473.2 -07.6007 26258.5
 01 08 2013  09 19  -21.0041 26027.7 -03473.3 -07.6009 26258.5
 01 08 2013  09 20  -21.0041 26027.6 -03473.4 -07.6012 26258.3
 01 08 2013  09 21  -21.0039 26027.5 -03473.6 -07.6016 26258.3
 01 08 2013  09 22  -21.0039 26027.5 -03473.7 -07.6020 26258.3
 01 08 2013  09 23  -21.0037 26027.5 -03473.9 -07.6023 26258.3
 01 08 2013  09 24  -21.0038 26027.4 -03474.0 -07.6026 26258.2
 01 08 2013  09 25  -21.0039 26027.3 -03474.1 -07.6029 26258.2
 01 08 2013  09 26  -21.0040 26027.3 -03474.3 -07.6033 26258.2
 01 08 2013  09 27  -21.0041 26027.2 -03474.4 -07.6036 26258.1
 01 08 2013  09 28  -21.0042 26027.2 -03474.6 -07.6040 26258.1
 01 08 2013  09 29  -21.0041 26027.2 -03474.7 -07.6043 26258.1
 01 08 2013  09 30  -21.0040 26027.0 -03474.8 -07.6044 26258.0
 01 08 2013  09 31  -21.0040 26026.9 -03474.9 -07.6046 26257.9
 01 08 2013  09 32  -21.0041 26026.9 -03475.0 -07.6049 26257.8
 01 08 2013  09 33  -21.0041 26026.9 -03475.1 -07.6051 26257.8
 01 08 2013  09 34  -21.0042 26026.9 -03475.2 -07.6054 26257.9
 01 08 2013  09 35  -21.0041 26026.8 -03475.3 -07.6056 26257.8
 01 08 2013  09 36  -21.0039 26026.7 -03475.4 -07.6058 26257.7
 01 08 2013  09 37  -21.0037 26026.6 -03475.5 -07.6060 26257.6
 01 08 2013  09 38  -21.0038 26026.5 -03475.6 -07.6063 26257.5
 01 08 2013  09 39  -21.0037 26026.4 -03475.7 -07.6065 26257.4
 01 08 2013  09 40  -21.0039 26026.4 -03475.8 -07.6068 26257.4
 01 08 2013  09 41  -21.0043 26026.3 -03475.9 -07.6071 26257.4
 01 08 2013  09 42  -21.0049 26026.4 -03476.1 -07.6074 26257.5
 01 08 2013  09 43  -21.0053 26026.3 -03476.2 -07.6077 26257.4
 01 08 2013  09 44  -21.0055 26026.4 -03476.3 -07.6079 26257.5
 01 08 2013  09 45  -21.0057 26026.3 -03476.4 -07.6081 26257.4
 01 08 2013  09 46  -21.0059 26026.2 -03476.5 -07.6082 26257.4
 01 08 2013  09 47  -21.0059 26026.2 -03476.5 -07.6084 26257.4
 01 08 2013  09 48  -21.0061 26026.2 -03476.6 -07.6086 26257.4
 01 08 2013  09 49  -21.0066 26026.1 -03476.7 -07.6088 26257.3
 01 08 2013  09 50  -21.0071 26026.1 -03476.8 -07.6090 26257.3
 01 08 2013  09 51  -21.0077 26026.2 -03476.9 -07.6092 26257.4
 01 08 2013  09 52  -21.0080 26026.2 -03477.0 -07.6095 26257.5
 01 08 2013  09 53  -21.0086 26026.2 -03477.1 -07.6096 26257.4
 01 08 2013  09 54  -21.0092 26026.3 -03477.2 -07.6099 26257.6
 01 08 2013  09 55  -21.0098 26026.4 -03477.3 -07.6100 26257.6
 01 08 2013  09 56  -21.0100 26026.4 -03477.4 -07.6102 26257.6
 01 08 2013  09 57  -21.0101 26026.4 -03477.4 -07.6102 26257.7
 01 08 2013  09 58  -21.0102 26026.4 -03477.4 -07.6103 26257.7
 01 08 2013  09 59  -21.0106 26026.4 -03477.5 -07.6104 26257.7
 01 08 2013  10 00  -21.0109 26026.5 -03477.5 -07.6105 26257.8
 01 08 2013  10 01  -21.0105 26026.5 -03477.5 -07.6105 26257.7
 01 08 2013  10 02  -21.0106 26026.4 -03477.5 -07.6104 26257.7
 01 08 2013  10 03  -21.0108 26026.4 -03477.5 -07.6105 26257.7
 01 08 2013  10 04  -21.0105 26026.5 -03477.5 -07.6105 26257.8
 01 08 2013  10 05  -21.0106 26026.5 -03477.5 -07.6105 26257.8
 01 08 2013  10 06  -21.0116 26026.5 -03477.6 -07.6107 26257.8
 01 08 2013  10 07  -21.0120 26026.6 -03477.7 -07.6108 26258.0
 01 08 2013  10 08  -21.0120 26026.7 -03477.7 -07.6109 26258.0
 01 08 2013  10 09  -21.0124 26026.8 -03477.8 -07.6110 26258.1
 01 08 2013  10 10  -21.0131 26027.0 -03477.9 -07.6112 26258.4
 01 08 2013  10 11  -21.0139 26027.3 -03478.1 -07.6114 26258.7
 01 08 2013  10 12  -21.0142 26027.4 -03478.1 -07.6114 26258.7
 01 08 2013  10 13  -21.0140 26027.4 -03478.0 -07.6113 26258.7
 01 08 2013  10 14  -21.0141 26027.4 -03478.0 -07.6113 26258.8
 01 08 2013  10 15  -21.0144 26027.5 -03478.0 -07.6113 26258.8
 01 08 2013  10 16  -21.0142 26027.7 -03478.1 -07.6114 26259.1
 01 08 2013  10 17  -21.0139 26027.8 -03478.1 -07.6112 26259.2
 01 08 2013  10 18  -21.0141 26027.9 -03478.0 -07.6112 26259.2
 01 08 2013  10 19  -21.0143 26027.8 -03478.0 -07.6112 26259.1
 01 08 2013  10 20  -21.0143 26027.7 -03478.0 -07.6111 26259.0
 01 08 2013  10 21  -21.0146 26027.8 -03478.0 -07.6112 26259.1
 01 08 2013  10 22  -21.0153 26027.8 -03478.1 -07.6114 26259.2
 01 08 2013  10 23  -21.0155 26027.9 -03478.2 -07.6115 26259.3
 01 08 2013  10 24  -21.0158 26027.8 -03478.1 -07.6114 26259.2
 01 08 2013  10 25  -21.0161 26027.9 -03478.2 -07.6115 26259.3
 01 08 2013  10 26  -21.0162 26028.0 -03478.2 -07.6114 26259.3
 01 08 2013  10 27  -21.0163 26027.9 -03478.1 -07.6113 26259.3
 01 08 2013  10 28  -21.0164 26028.0 -03478.1 -07.6113 26259.4
 01 08 2013  10 29  -21.0161 26028.3 -03478.2 -07.6114 26259.6
 01 08 2013  10 30  -21.0157 26028.3 -03478.2 -07.6113 26259.7
 01 08 2013  10 31  -21.0156 26028.1 -03478.1 -07.6111 26259.5
 01 08 2013  10 32  -21.0162 26027.7 -03477.9 -07.6110 26259.1
 01 08 2013  10 33  -21.0167 26027.7 -03477.9 -07.6110 26259.0
 01 08 2013  10 34  -21.0166 26027.6 -03477.9 -07.6109 26259.0
 01 08 2013  10 35  -21.0166 26027.6 -03477.9 -07.6109 26258.9
 01 08 2013  10 36  -21.0170 26027.6 -03477.9 -07.6110 26258.9
 01 08 2013  10 37  -21.0179 26027.6 -03478.0 -07.6111 26259.0
 01 08 2013  10 38  -21.0191 26027.6 -03478.0 -07.6112 26258.9
 01 08 2013  10 39  -21.0203 26027.5 -03478.0 -07.6113 26258.9
 01 08 2013  10 40  -21.0216 26027.5 -03478.1 -07.6113 26258.8
 01 08 2013  10 41  -21.0223 26027.5 -03478.1 -07.6114 26258.9
 01 08 2013  10 42  -21.0227 26027.5 -03478.1 -07.6113 26258.9
 01 08 2013  10 43  -21.0229 26027.6 -03478.0 -07.6112 26259.0
 01 08 2013  10 44  -21.0237 26027.6 -03478.0 -07.6112 26259.0
 01 08 2013  10 45  -21.0247 26027.7 -03478.1 -07.6113 26259.0
 01 08 2013  10 46  -21.0254 26027.9 -03478.1 -07.6113 26259.3
 01 08 2013  10 47  -21.0253 26028.1 -03478.1 -07.6113 26259.5
 01 08 2013  10 48  -21.0252 26028.5 -03478.2 -07.6114 26259.9
 01 08 2013  10 49  -21.0255 26029.0 -03478.3 -07.6115 26260.4
 01 08 2013  10 50  -21.0261 26029.7 -03478.5 -07.6117 26261.1
 01 08 2013  10 51  -21.0265 26030.3 -03478.6 -07.6117 26261.7
 01 08 2013  10 52  -21.0262 26030.6 -03478.6 -07.6115 26262.0
 01 08 2013  10 53  -21.0261 26030.9 -03478.5 -07.6113 26262.3
 01 08 2013  10 54  -21.0267 26031.2 -03478.5 -07.6113 26262.5
 01 08 2013  10 55  -21.0275 26031.3 -03478.5 -07.6112 26262.7
 01 08 2013  10 56  -21.0282 26031.6 -03478.5 -07.6111 26263.0
 01 08 2013  10 57  -21.0289 26031.9 -03478.5 -07.6109 26263.2
 01 08 2013  10 58  -21.0294 26032.3 -03478.5 -07.6109 26263.7
 01 08 2013  10 59  -21.0298 26032.7 -03478.5 -07.6109 26264.0
 01 08 2013  11 00  -21.0306 26033.0 -03478.5 -07.6108 26264.4
 01 08 2013  11 01  -21.0312 26033.2 -03478.5 -07.6106 26264.6
 01 08 2013  11 02  -21.0316 26033.5 -03478.4 -07.6104 26264.8
 01 08 2013  11 03  -21.0323 26033.5 -03478.3 -07.6101 26264.9
 01 08 2013  11 04  -21.0335 26033.6 -03478.2 -07.6099 26264.9
 01 08 2013  11 05  -21.0346 26033.7 -03478.2 -07.6099 26265.1
 01 08 2013  11 06  -21.0354 26033.8 -03478.1 -07.6097 26265.1
 01 08 2013  11 07  -21.0363 26033.9 -03478.1 -07.6095 26265.2
 01 08 2013  11 08  -21.0369 26034.1 -03478.1 -07.6094 26265.4
 01 08 2013  11 09  -21.0375 26034.5 -03478.1 -07.6093 26265.8
 01 08 2013  11 10  -21.0381 26034.8 -03478.1 -07.6092 26266.1
 01 08 2013  11 11  -21.0387 26035.2 -03478.0 -07.6090 26266.4
 01 08 2013  11 12  -21.0392 26035.5 -03478.0 -07.6089 26266.8
 01 08 2013  11 13  -21.0397 26035.8 -03478.0 -07.6087 26267.1
 01 08 2013  11 14  -21.0405 26035.9 -03477.8 -07.6084 26267.2
 01 08 2013  11 15  -21.0414 26036.1 -03477.7 -07.6082 26267.3
 01 08 2013  11 16  -21.0421 26036.5 -03477.7 -07.6080 26267.7
 01 08 2013  11 17  -21.0428 26036.9 -03477.7 -07.6079 26268.1
 01 08 2013  11 18  -21.0434 26037.2 -03477.6 -07.6076 26268.4
 01 08 2013  11 19  -21.0439 26037.5 -03477.5 -07.6073 26268.7
 01 08 2013  11 20  -21.0446 26037.8 -03477.4 -07.6069 26269.0
 01 08 2013  11 21  -21.0451 26038.1 -03477.3 -07.6066 26269.3
 01 08 2013  11 22  -21.0455 26038.5 -03477.2 -07.6062 26269.6
 01 08 2013  11 23  -21.0460 26038.9 -03477.1 -07.6059 26270.0
 01 08 2013  11 24  -21.0465 26039.1 -03476.9 -07.6054 26270.2
 01 08 2013  11 25  -21.0468 26039.3 -03476.7 -07.6050 26270.4
 01 08 2013  11 26  -21.0473 26039.6 -03476.6 -07.6046 26270.7
 01 08 2013  11 27  -21.0477 26040.1 -03476.5 -07.6043 26271.2
 01 08 2013  11 28  -21.0482 26040.5 -03476.4 -07.6040 26271.6
 01 08 2013  11 29  -21.0484 26040.9 -03476.3 -07.6036 26271.9
 01 08 2013  11 30  -21.0488 26041.3 -03476.1 -07.6032 26272.3
 01 08 2013  11 31  -21.0490 26041.5 -03475.9 -07.6027 26272.5
 01 08 2013  11 32  -21.0494 26041.7 -03475.7 -07.6022 26272.6
 01 08 2013  11 33  -21.0500 26041.8 -03475.5 -07.6017 26272.7
 01 08 2013  11 34  -21.0502 26041.9 -03475.3 -07.6012 26272.8
 01 08 2013  11 35  -21.0503 26042.1 -03475.1 -07.6008 26273.0
 01 08 2013  11 36  -21.0504 26042.5 -03475.0 -07.6004 26273.3
 01 08 2013  11 37  -21.0504 26042.7 -03474.9 -07.6001 26273.5
 01 08 2013  11 38  -21.0503 26042.8 -03474.7 -07.5998 26273.6
 01 08 2013  11 39  -21.0506 26042.8 -03474.6 -07.5994 26273.6
 01 08 2013  11 40  -21.0510 26042.9 -03474.5 -07.5992 26273.7
 01 08 2013  11 41  -21.0513 26043.1 -03474.4 -07.5989 26273.8
 01 08 2013  11 42  -21.0515 26043.2 -03474.3 -07.5987 26274.0
 01 08 2013  11 43  -21.0518 26043.5 -03474.3 -07.5985 26274.2
 01 08 2013  11 44  -21.0519 26043.7 -03474.2 -07.5983 26274.4
 01 08 2013  11 45  -21.0519 26044.0 -03474.2 -07.5982 26274.7
 01 08 2013  11 46  -21.0520 26044.4 -03474.2 -07.5982 26275.1
 01 08 2013  11 47  -21.0523 26044.7 -03474.2 -07.5980 26275.4
 01 08 2013  11 48  -21.0526 26044.9 -03474.1 -07.5978 26275.6
 01 08 2013  11 49  -21.0529 26045.4 -03474.2 -07.5979 26276.1
 01 08 2013  11 50  -21.0531 26045.6 -03474.2 -07.5977 26276.2
 01 08 2013  11 51  -21.0533 26045.8 -03474.2 -07.5976 26276.5
 01 08 2013  11 52  -21.0535 26046.1 -03474.2 -07.5976 26276.7
 01 08 2013  11 53  -21.0535 26046.2 -03474.2 -07.5975 26276.9
 01 08 2013  11 54  -21.0535 26046.3 -03474.1 -07.5973 26277.0
 01 08 2013  11 55  -21.0536 26046.4 -03474.1 -07.5973 26277.0
 01 08 2013  11 56  -21.0539 26046.5 -03474.1 -07.5972 26277.1
 01 08 2013  11 57  -21.0542 26046.7 -03474.1 -07.5972 26277.4
 01 08 2013  11 58  -21.0549 26046.7 -03474.0 -07.5970 26277.4
 01 08 2013  11 59  -21.0556 26046.8 -03474.0 -07.5970 26277.4
 01 08 2013  12 00  -21.0565 26047.1 -03474.1 -07.5970 26277.8
 01 08 2013  12 01  -21.0570 26047.4 -03474.1 -07.5970 26278.0
 01 08 2013  12 02  -21.0573 26047.6 -03474.0 -07.5968 26278.3
 01 08 2013  12 03  -21.0577 26047.9 -03474.0 -07.5967 26278.5
 01 08 2013  12 04  -21.0578 26048.3 -03474.0 -07.5966 26278.9
 01 08 2013  12 05  -21.0578 26048.5 -03474.0 -07.5964 26279.1
 01 08 2013  12 06  -21.0581 26048.7 -03473.9 -07.5963 26279.3
 01 08 2013  12 07  -21.0585 26049.0 -03473.9 -07.5962 26279.6
 01 08 2013  12 08  -21.0588 26049.2 -03473.9 -07.5960 26279.8
 01 08 2013  12 09  -21.0590 26049.3 -03473.8 -07.5958 26279.9
 01 08 2013  12 10  -21.0592 26049.3 -03473.7 -07.5955 26279.9
 01 08 2013  12 11  -21.0593 26049.4 -03473.6 -07.5953 26280.0
 01 08 2013  12 12  -21.0593 26049.7 -03473.6 -07.5953 26280.3
 01 08 2013  12 13  -21.0594 26050.2 -03473.7 -07.5954 26280.8
 01 08 2013  12 14  -21.0594 26050.5 -03473.7 -07.5952 26281.0
 01 08 2013  12 15  -21.0593 26050.8 -03473.7 -07.5951 26281.4
 01 08 2013  12 16  -21.0590 26050.9 -03473.5 -07.5948 26281.5
 01 08 2013  12 17  -21.0589 26051.1 -03473.5 -07.5947 26281.7
 01 08 2013  12 18  -21.0588 26051.2 -03473.4 -07.5944 26281.8
 01 08 2013  12 19  -21.0589 26051.4 -03473.4 -07.5943 26281.9
 01 08 2013  12 20  -21.0589 26051.5 -03473.3 -07.5941 26282.0
 01 08 2013  12 21  -21.0590 26051.7 -03473.3 -07.5940 26282.2
 01 08 2013  12 22  -21.0590 26052.0 -03473.3 -07.5939 26282.5
 01 08 2013  12 23  -21.0590 26052.3 -03473.3 -07.5938 26282.8
 01 08 2013  12 24  -21.0589 26052.6 -03473.2 -07.5937 26283.1
 01 08 2013  12 25  -21.0587 26053.0 -03473.2 -07.5936 26283.5
 01 08 2013  12 26  -21.0585 26053.3 -03473.2 -07.5934 26283.8
 01 08 2013  12 27  -21.0584 26053.7 -03473.2 -07.5934 26284.2
 01 08 2013  12 28  -21.0580 26054.1 -03473.2 -07.5932 26284.6
 01 08 2013  12 29  -21.0576 26054.3 -03473.1 -07.5930 26284.8
 01 08 2013  12 30  -21.0574 26054.4 -03473.0 -07.5927 26284.8
 01 08 2013  12 31  -21.0575 26054.5 -03473.0 -07.5926 26285.0
 01 08 2013  12 32  -21.0575 26054.8 -03473.0 -07.5925 26285.3
 01 08 2013  12 33  -21.0572 26054.8 -03472.9 -07.5922 26285.2
 01 08 2013  12 34  -21.0567 26054.9 -03472.8 -07.5921 26285.3
 01 08 2013  12 35  -21.0567 26054.9 -03472.7 -07.5919 26285.3
 01 08 2013  12 36  -21.0567 26054.7 -03472.7 -07.5918 26285.1
 01 08 2013  12 37  -21.0568 26054.8 -03472.7 -07.5918 26285.2
 01 08 2013  12 38  -21.0571 26054.9 -03472.8 -07.5920 26285.3
 01 08 2013  12 39  -21.0572 26055.1 -03472.9 -07.5922 26285.5
 01 08 2013  12 40  -21.0573 26055.2 -03472.9 -07.5923 26285.6
 01 08 2013  12 41  -21.0573 26055.1 -03473.0 -07.5924 26285.6
 01 08 2013  12 42  -21.0571 26055.0 -03472.9 -07.5924 26285.4
 01 08 2013  12 43  -21.0567 26054.8 -03472.9 -07.5924 26285.2
 01 08 2013  12 44  -21.0568 26054.7 -03473.0 -07.5926 26285.2
 01 08 2013  12 45  -21.0572 26055.2 -03473.3 -07.5931 26285.7
 01 08 2013  12 46  -21.0578 26055.7 -03473.6 -07.5935 26286.2
 01 08 2013  12 47  -21.0581 26055.9 -03473.7 -07.5936 26286.5
 01 08 2013  12 48  -21.0582 26056.2 -03473.7 -07.5936 26286.7
 01 08 2013  12 49  -21.0580 26056.3 -03473.7 -07.5935 26286.8
 01 08 2013  12 50  -21.0581 26056.4 -03473.6 -07.5935 26286.9
 01 08 2013  12 51  -21.0583 26056.4 -03473.6 -07.5935 26286.9
 01 08 2013  12 52  -21.0583 26056.4 -03473.6 -07.5934 26286.9
 01 08 2013  12 53  -21.0583 26056.4 -03473.7 -07.5935 26286.9
 01 08 2013  12 54  -21.0584 26056.5 -03473.7 -07.5935 26287.0
 01 08 2013  12 55  -21.0585 26056.5 -03473.7 -07.5935 26287.0
 01 08 2013  12 56  -21.0588 26056.6 -03473.8 -07.5937 26287.2
 01 08 2013  12 57  -21.0594 26056.8 -03473.9 -07.5938 26287.3
 01 08 2013  12 58  -21.0600 26056.9 -03473.9 -07.5939 26287.4
 01 08 2013  12 59  -21.0601 26057.1 -03474.0 -07.5939 26287.6
 01 08 2013  13 00  -21.0605 26057.3 -03474.0 -07.5940 26287.9
 01 08 2013  13 01  -21.0608 26057.4 -03474.0 -07.5939 26288.0
 01 08 2013  13 02  -21.0610 26057.3 -03473.9 -07.5937 26287.9
 01 08 2013  13 03  -21.0613 26057.4 -03473.9 -07.5937 26288.0
 01 08 2013  13 04  -21.0615 26057.8 -03474.0 -07.5938 26288.3
 01 08 2013  13 05  -21.0621 26058.0 -03474.0 -07.5938 26288.6
 01 08 2013  13 06  -21.0625 26058.3 -03474.0 -07.5937 26288.8
 01 08 2013  13 07  -21.0629 26058.4 -03473.9 -07.5935 26288.9
 01 08 2013  13 08  -21.0632 26058.4 -03473.8 -07.5933 26288.9
 01 08 2013  13 09  -21.0632 26058.4 -03473.7 -07.5930 26288.9
 01 08 2013  13 10  -21.0630 26058.3 -03473.6 -07.5928 26288.8
 01 08 2013  13 11  -21.0632 26058.6 -03473.6 -07.5928 26289.1
 01 08 2013  13 12  -21.0635 26058.9 -03473.7 -07.5928 26289.4
 01 08 2013  13 13  -21.0637 26059.0 -03473.6 -07.5925 26289.5
 01 08 2013  13 14  -21.0637 26059.0 -03473.4 -07.5923 26289.5
 01 08 2013  13 15  -21.0633 26058.9 -03473.3 -07.5919 26289.4
 01 08 2013  13 16  -21.0629 26058.7 -03473.1 -07.5917 26289.2
 01 08 2013  13 17  -21.0626 26058.7 -03473.1 -07.5916 26289.1
 01 08 2013  13 18  -21.0622 26058.6 -03473.0 -07.5915 26289.0
 01 08 2013  13 19  -21.0621 26058.7 -03473.1 -07.5916 26289.1
 01 08 2013  13 20  -21.0618 26058.8 -03473.1 -07.5917 26289.2
 01 08 2013  13 21  -21.0618 26058.7 -03473.1 -07.5917 26289.2
 01 08 2013  13 22  -21.0619 26058.7 -03473.1 -07.5917 26289.1
 01 08 2013  13 23  -21.0619 26058.7 -03473.2 -07.5919 26289.1
 01 08 2013  13 24  -21.0621 26058.9 -03473.4 -07.5921 26289.3
 01 08 2013  13 25  -21.0618 26058.9 -03473.4 -07.5922 26289.3
 01 08 2013  13 26  -21.0618 26059.2 -03473.6 -07.5925 26289.6
 01 08 2013  13 27  -21.0617 26059.4 -03473.7 -07.5927 26289.9
 01 08 2013  13 28  -21.0618 26059.5 -03473.8 -07.5929 26290.0
 01 08 2013  13 29  -21.0618 26059.6 -03473.9 -07.5931 26290.1
 01 08 2013  13 30  -21.0620 26059.8 -03474.0 -07.5933 26290.4
 01 08 2013  13 31  -21.0622 26060.3 -03474.2 -07.5934 26290.8
 01 08 2013  13 32  -21.0624 26060.5 -03474.2 -07.5934 26291.1
 01 08 2013  13 33  -21.0624 26060.6 -03474.1 -07.5933 26291.2
 01 08 2013  13 34  -21.0626 26060.6 -03474.1 -07.5933 26291.1
 01 08 2013  13 35  -21.0623 26060.7 -03474.1 -07.5932 26291.3
 01 08 2013  13 36  -21.0623 26061.0 -03474.2 -07.5932 26291.5
 01 08 2013  13 37  -21.0624 26061.2 -03474.2 -07.5932 26291.7
 01 08 2013  13 38  -21.0623 26061.5 -03474.2 -07.5932 26292.0
 01 08 2013  13 39  -21.0619 26061.7 -03474.1 -07.5930 26292.2
 01 08 2013  13 40  -21.0613 26062.1 -03474.1 -07.5929 26292.6
 01 08 2013  13 41  -21.0607 26062.5 -03474.2 -07.5928 26293.0
 01 08 2013  13 42  -21.0604 26062.8 -03474.2 -07.5929 26293.3
 01 08 2013  13 43  -21.0604 26063.3 -03474.3 -07.5929 26293.8
 01 08 2013  13 44  -21.0603 26063.6 -03474.4 -07.5929 26294.2
 01 08 2013  13 45  -21.0602 26063.8 -03474.3 -07.5927 26294.3
 01 08 2013  13 46  -21.0596 26064.1 -03474.3 -07.5926 26294.6
 01 08 2013  13 47  -21.0594 26064.3 -03474.2 -07.5925 26294.8
 01 08 2013  13 48  -21.0591 26064.4 -03474.1 -07.5923 26294.9
 01 08 2013  13 49  -21.0587 26064.3 -03474.0 -07.5920 26294.8
 01 08 2013  13 50  -21.0589 26064.6 -03474.1 -07.5920 26295.1
 01 08 2013  13 51  -21.0589 26064.7 -03474.0 -07.5919 26295.2
 01 08 2013  13 52  -21.0587 26064.7 -03473.9 -07.5917 26295.2
 01 08 2013  13 53  -21.0584 26064.6 -03473.8 -07.5915 26295.1
 01 08 2013  13 54  -21.0581 26064.7 -03473.8 -07.5915 26295.1
 01 08 2013  13 55  -21.0584 26065.0 -03474.0 -07.5917 26295.5
 01 08 2013  13 56  -21.0584 26065.1 -03474.0 -07.5917 26295.6
 01 08 2013  13 57  -21.0583 26065.2 -03473.9 -07.5916 26295.7
 01 08 2013  13 58  -21.0580 26065.3 -03473.9 -07.5914 26295.8
 01 08 2013  13 59  -21.0576 26065.4 -03473.8 -07.5912 26295.9
 01 08 2013  14 00  -21.0575 26065.7 -03473.8 -07.5911 26296.2
 01 08 2013  14 01  -21.0576 26066.0 -03473.8 -07.5911 26296.5
 01 08 2013  14 02  -21.0577 26066.2 -03473.8 -07.5909 26296.7
 01 08 2013  14 03  -21.0577 26066.5 -03473.7 -07.5907 26297.0
 01 08 2013  14 04  -21.0577 26066.7 -03473.6 -07.5905 26297.2
 01 08 2013  14 05  -21.0578 26066.7 -03473.5 -07.5901 26297.1
 01 08 2013  14 06  -21.0578 26066.6 -03473.3 -07.5898 26297.0
 01 08 2013  14 07  -21.0578 26066.6 -03473.3 -07.5897 26297.0
 01 08 2013  14 08  -21.0581 26066.9 -03473.3 -07.5896 26297.2
 01 08 2013  14 09  -21.0584 26066.9 -03473.2 -07.5895 26297.3
 01 08 2013  14 10  -21.0584 26066.9 -03473.1 -07.5893 26297.2
 01 08 2013  14 11  -21.0584 26067.0 -03473.1 -07.5892 26297.4
 01 08 2013  14 12  -21.0586 26067.2 -03473.1 -07.5892 26297.5
 01 08 2013  14 13  -21.0588 26067.1 -03473.0 -07.5889 26297.4
 01 08 2013  14 14  -21.0590 26066.9 -03472.8 -07.5887 26297.2
 01 08 2013  14 15  -21.0592 26066.9 -03472.8 -07.5885 26297.2
 01 08 2013  14 16  -21.0595 26066.9 -03472.7 -07.5885 26297.2
 01 08 2013  14 17  -21.0596 26066.6 -03472.6 -07.5882 26296.9
 01 08 2013  14 18  -21.0598 26066.6 -03472.6 -07.5882 26296.9
 01 08 2013  14 19  -21.0598 26066.6 -03472.6 -07.5882 26296.9
 01 08 2013  14 20  -21.0600 26066.4 -03472.5 -07.5882 26296.7
 01 08 2013  14 21  -21.0639 26065.7 -03472.1 -07.5875 26295.9
 01 08 2013  14 22  -21.0643 26065.6 -03472.1 -07.5875 26295.8
 01 08 2013  14 23  -21.0644 26065.5 -03472.1 -07.5875 26295.8
 01 08 2013  14 24  -21.0646 26065.5 -03472.2 -07.5876 26295.8
 01 08 2013  14 25  -21.0676 26065.5 -03472.3 -07.5879 26295.7
 01 08 2013  14 26  -21.0651 26065.6 -03472.3 -07.5879 26295.9
 01 08 2013  14 27  -21.0644 26065.5 -03472.3 -07.5880 26295.7
 01 08 2013  14 28  -21.0615 26065.6 -03472.6 -07.5886 26295.9
 01 08 2013  14 29  -21.0620 26065.4 -03472.7 -07.5888 26295.8
 01 08 2013  14 30  -21.0622 26065.2 -03472.7 -07.5889 26295.5
 01 08 2013  14 31  -21.0627 26064.9 -03472.7 -07.5890 26295.2
 01 08 2013  14 32  -21.0631 26064.6 -03472.7 -07.5891 26294.9
 01 08 2013  14 33  -21.0636 26064.3 -03472.7 -07.5892 26294.6
 01 08 2013  14 34  -21.0642 26064.0 -03472.8 -07.5894 26294.4
 01 08 2013  14 35  -21.0648 26063.9 -03472.9 -07.5897 26294.3
 01 08 2013  14 36  -21.0654 26063.7 -03473.0 -07.5899 26294.1
 01 08 2013  14 37  -21.0655 26063.5 -03472.9 -07.5899 26293.9
 01 08 2013  14 38  -21.0660 26063.5 -03473.0 -07.5901 26293.9
 01 08 2013  14 39  -21.0663 26063.6 -03473.1 -07.5903 26294.0
 01 08 2013  14 40  -21.0666 26064.0 -03473.3 -07.5906 26294.4
 01 08 2013  14 41  -21.0672 26064.7 -03473.7 -07.5911 26295.2
 01 08 2013  14 42  -21.0678 26065.8 -03473.9 -07.5914 26296.3
 01 08 2013  14 43  -21.0682 26066.8 -03474.0 -07.5913 26297.3
 01 08 2013  14 44  -21.0687 26067.8 -03474.0 -07.5910 26298.3
 01 08 2013  14 45  -21.0691 26068.7 -03473.9 -07.5904 26299.1
 01 08 2013  14 46  -21.0694 26069.4 -03473.6 -07.5897 26299.8
 01 08 2013  14 47  -21.0698 26069.7 -03473.2 -07.5887 26300.0
 01 08 2013  14 48  -21.0700 26069.4 -03472.6 -07.5874 26299.7
 01 08 2013  14 49  -21.0696 26068.7 -03471.9 -07.5861 26298.9
 01 08 2013  14 50  -21.0690 26067.8 -03471.3 -07.5852 26298.0
 01 08 2013  14 51  -21.0688 26067.8 -03471.2 -07.5850 26297.9
 01 08 2013  14 52  -21.0687 26068.1 -03471.3 -07.5850 26298.2
 01 08 2013  14 53  -21.0686 26068.3 -03471.3 -07.5850 26298.4
 01 08 2013  14 54  -21.0687 26068.5 -03471.2 -07.5847 26298.6
 01 08 2013  14 55  -21.0686 26068.7 -03471.0 -07.5843 26298.8
 01 08 2013  14 56  -21.0687 26069.2 -03471.0 -07.5840 26299.3
 01 08 2013  14 57  -21.0685 26069.5 -03470.8 -07.5835 26299.6
 01 08 2013  14 58  -21.0682 26069.6 -03470.4 -07.5828 26299.6
 01 08 2013  14 59  -21.0672 26069.0 -03469.9 -07.5817 26298.9
 01 08 2013  15 00  -21.0662 26067.7 -03469.3 -07.5807 26297.6
 01 08 2013  15 01  -21.0648 26066.6 -03468.8 -07.5800 26296.4
 01 08 2013  15 02  -21.0639 26065.5 -03468.5 -07.5797 26295.2
 01 08 2013  15 03  -21.0618 26064.7 -03468.4 -07.5797 26294.4
 01 08 2013  15 04  -21.0610 26064.3 -03468.8 -07.5807 26294.1
 01 08 2013  15 05  -21.0611 26064.5 -03469.2 -07.5816 26294.4
 01 08 2013  15 06  -21.0616 26065.6 -03469.9 -07.5826 26295.6
 01 08 2013  15 07  -21.0614 26066.4 -03470.1 -07.5830 26296.3
 01 08 2013  15 08  -21.0607 26066.3 -03470.0 -07.5828 26296.2
 01 08 2013  15 09  -21.0601 26066.0 -03469.8 -07.5825 26296.0
 01 08 2013  15 10  -21.0595 26065.6 -03469.6 -07.5821 26295.5
 01 08 2013  15 11  -21.0591 26065.1 -03469.4 -07.5819 26295.0
 01 08 2013  15 12  -21.0585 26064.5 -03469.2 -07.5816 26294.4
 01 08 2013  15 13  -21.0574 26063.4 -03469.0 -07.5813 26293.3
 01 08 2013  15 14  -21.0567 26062.4 -03468.7 -07.5812 26292.2
 01 08 2013  15 15  -21.0562 26061.5 -03468.7 -07.5813 26291.3
 01 08 2013  15 16  -21.0555 26060.6 -03468.7 -07.5815 26290.4
 01 08 2013  15 17  -21.0551 26060.0 -03468.8 -07.5819 26289.8
 01 08 2013  15 18  -21.0548 26059.4 -03468.8 -07.5822 26289.2
 01 08 2013  15 19  -21.0543 26058.7 -03468.9 -07.5824 26288.6
 01 08 2013  15 20  -21.0535 26058.2 -03469.0 -07.5828 26288.1
 01 08 2013  15 21  -21.0530 26058.0 -03469.2 -07.5834 26287.9
 01 08 2013  15 22  -21.0527 26057.8 -03469.5 -07.5840 26287.8
 01 08 2013  15 23  -21.0524 26057.8 -03469.7 -07.5845 26287.8
 01 08 2013  15 24  -21.0520 26058.0 -03470.0 -07.5851 26288.0
 01 08 2013  15 25  -21.0516 26058.1 -03470.2 -07.5855 26288.1
 01 08 2013  15 26  -21.0512 26058.2 -03470.3 -07.5858 26288.3
 01 08 2013  15 27  -21.0509 26058.4 -03470.5 -07.5861 26288.5
 01 08 2013  15 28  -21.0505 26058.5 -03470.6 -07.5864 26288.6
 01 08 2013  15 29  -21.0501 26058.7 -03470.7 -07.5865 26288.8
 01 08 2013  15 30  -21.0496 26058.8 -03470.8 -07.5867 26288.9
 01 08 2013  15 31  -21.0493 26058.8 -03470.9 -07.5869 26289.0
 01 08 2013  15 32  -21.0492 26058.9 -03471.1 -07.5871 26289.0
 01 08 2013  15 33  -21.0488 26058.5 -03471.0 -07.5870 26288.7
 01 08 2013  15 34  -21.0484 26058.3 -03470.9 -07.5870 26288.5
 01 08 2013  15 35  -21.0483 26058.0 -03470.9 -07.5870 26288.1
 01 08 2013  15 36  -21.0482 26057.7 -03470.8 -07.5869 26287.8
 01 08 2013  15 37  -21.0480 26057.3 -03470.7 -07.5868 26287.4
 01 08 2013  15 38  -21.0475 26056.8 -03470.6 -07.5867 26287.0
 01 08 2013  15 39  -21.0470 26056.2 -03470.4 -07.5866 26286.3
 01 08 2013  15 40  -21.0467 26055.4 -03470.3 -07.5865 26285.4
 01 08 2013  15 41  -21.0462 26054.9 -03470.3 -07.5867 26285.0
 01 08 2013  15 42  -21.0461 26054.8 -03470.4 -07.5869 26284.9
 01 08 2013  15 43  -21.0458 26054.7 -03470.5 -07.5871 26284.8
 01 08 2013  15 44  -21.0455 26054.9 -03470.7 -07.5875 26285.1
 01 08 2013  15 45  -21.0455 26055.5 -03470.9 -07.5879 26285.6
 01 08 2013  15 46  -21.0452 26055.7 -03471.0 -07.5879 26285.9
 01 08 2013  15 47  -21.0451 26055.9 -03471.0 -07.5878 26286.1
 01 08 2013  15 48  -21.0447 26056.1 -03470.9 -07.5875 26286.2
 01 08 2013  15 49  -21.0442 26056.1 -03470.8 -07.5873 26286.3
 01 08 2013  15 50  -21.0437 26056.2 -03470.7 -07.5871 26286.4
 01 08 2013  15 51  -21.0431 26056.4 -03470.6 -07.5870 26286.5
 01 08 2013  15 52  -21.0425 26056.2 -03470.5 -07.5866 26286.3
 01 08 2013  15 53  -21.0417 26056.3 -03470.4 -07.5865 26286.4
 01 08 2013  15 54  -21.0409 26056.4 -03470.4 -07.5864 26286.5
 01 08 2013  15 55  -21.0402 26056.9 -03470.4 -07.5863 26287.0
 01 08 2013  15 56  -21.0396 26057.4 -03470.5 -07.5865 26287.5
 01 08 2013  15 57  -21.0392 26057.6 -03470.5 -07.5863 26287.7
 01 08 2013  15 58  -21.0385 26057.7 -03470.4 -07.5861 26287.7
 01 08 2013  15 59  -21.0385 26057.5 -03470.2 -07.5857 26287.5
 01 08 2013  16 00  -21.0383 26057.1 -03469.8 -07.5849 26287.1
 01 08 2013  16 01  -21.0381 26056.3 -03469.3 -07.5840 26286.3
 01 08 2013  16 02  -21.0369 26054.6 -03468.5 -07.5828 26284.4
 01 08 2013  16 03  -21.0349 26052.2 -03467.7 -07.5819 26282.0
 01 08 2013  16 04  -21.0334 26050.3 -03467.4 -07.5818 26280.1
 01 08 2013  16 05  -21.0321 26048.9 -03467.5 -07.5824 26278.7
 01 08 2013  16 06  -21.0313 26047.5 -03467.7 -07.5832 26277.3
 01 08 2013  16 07  -21.0306 26046.4 -03468.0 -07.5840 26276.3
 01 08 2013  16 08  -21.0304 26045.9 -03468.4 -07.5851 26275.9
 01 08 2013  16 09  -21.0305 26045.9 -03468.9 -07.5863 26275.9
 01 08 2013  16 10  -21.0308 26045.9 -03469.3 -07.5872 26276.0
 01 08 2013  16 11  -21.0308 26046.1 -03469.6 -07.5877 26276.1
 01 08 2013  16 12  -21.0309 26046.5 -03470.0 -07.5885 26276.7
 01 08 2013  16 13  -21.0307 26046.7 -03470.2 -07.5888 26276.9
 01 08 2013  16 14  -21.0305 26046.9 -03470.3 -07.5890 26277.0
 01 08 2013  16 15  -21.0302 26047.2 -03470.4 -07.5892 26277.4
 01 08 2013  16 16  -21.0298 26047.8 -03470.6 -07.5893 26278.0
 01 08 2013  16 17  -21.0300 26048.9 -03471.0 -07.5898 26279.1
 01 08 2013  16 18  -21.0305 26050.0 -03471.2 -07.5899 26280.3
 01 08 2013  16 19  -21.0307 26051.0 -03471.2 -07.5897 26281.2
 01 08 2013  16 20  -21.0303 26051.5 -03470.9 -07.5889 26281.7
 01 08 2013  16 21  -21.0293 26051.5 -03470.5 -07.5880 26281.6
 01 08 2013  16 22  -21.0278 26051.1 -03470.0 -07.5872 26281.2
 01 08 2013  16 23  -21.0263 26050.9 -03469.8 -07.5867 26281.0
 01 08 2013  16 24  -21.0252 26050.7 -03469.7 -07.5866 26280.8
 01 08 2013  16 25  -21.0242 26050.5 -03469.6 -07.5864 26280.5
 01 08 2013  16 26  -21.0230 26050.2 -03469.5 -07.5863 26280.2
 01 08 2013  16 27  -21.0216 26050.0 -03469.5 -07.5863 26280.1
 01 08 2013  16 28  -21.0205 26049.8 -03469.4 -07.5863 26279.8
 01 08 2013  16 29  -21.0201 26049.7 -03469.5 -07.5864 26279.7
 01 08 2013  16 30  -21.0191 26049.4 -03469.4 -07.5863 26279.4
 01 08 2013  16 31  -21.0174 26049.0 -03469.3 -07.5862 26279.0
 01 08 2013  16 32  -21.0159 26049.0 -03469.5 -07.5867 26279.1
 01 08 2013  16 33  -21.0157 26049.7 -03470.0 -07.5875 26279.7
 01 08 2013  16 34  -21.0154 26050.6 -03470.4 -07.5882 26280.7
 01 08 2013  16 35  -21.0146 26051.2 -03470.6 -07.5883 26281.3
 01 08 2013  16 36  -21.0134 26051.6 -03470.7 -07.5884 26281.8
 01 08 2013  16 37  -21.0126 26051.9 -03470.7 -07.5884 26282.1
 01 08 2013  16 38  -21.0118 26052.4 -03470.8 -07.5886 26282.6
 01 08 2013  16 39  -21.0114 26052.8 -03470.9 -07.5886 26283.0
 01 08 2013  16 40  -21.0107 26053.0 -03470.9 -07.5884 26283.2
 01 08 2013  16 41  -21.0098 26052.8 -03470.6 -07.5880 26282.9
 01 08 2013  16 42  -21.0088 26052.3 -03470.4 -07.5877 26282.4
 01 08 2013  16 43  -21.0075 26051.6 -03470.2 -07.5875 26281.7
 01 08 2013  16 44  -21.0063 26050.8 -03470.2 -07.5875 26280.9
 01 08 2013  16 45  -21.0052 26050.1 -03470.2 -07.5878 26280.3
 01 08 2013  16 46  -21.0045 26049.6 -03470.4 -07.5884 26279.7
 01 08 2013  16 47  -21.0039 26049.2 -03470.6 -07.5889 26279.4
 01 08 2013  16 48  -21.0038 26049.0 -03470.9 -07.5896 26279.2
 01 08 2013  16 49  -21.0038 26048.9 -03471.1 -07.5901 26279.1
 01 08 2013  16 50  -21.0034 26048.4 -03471.1 -07.5903 26278.7
 01 08 2013  16 51  -21.0032 26048.2 -03471.3 -07.5907 26278.5
 01 08 2013  16 52  -21.0029 26047.7 -03471.3 -07.5909 26278.0
 01 08 2013  16 53  -21.0023 26047.6 -03471.5 -07.5913 26277.9
 01 08 2013  16 54  -21.0021 26047.7 -03471.9 -07.5921 26278.1
 01 08 2013  16 55  -21.0022 26048.1 -03472.2 -07.5927 26278.5
 01 08 2013  16 56  -21.0030 26049.0 -03472.7 -07.5935 26279.4
 01 08 2013  16 57  -21.0036 26049.9 -03473.0 -07.5939 26280.4
 01 08 2013  16 58  -21.0039 26050.3 -03472.9 -07.5937 26280.7
 01 08 2013  16 59  -21.0039 26050.5 -03472.8 -07.5934 26280.9
 01 08 2013  17 00  -21.0041 26050.6 -03472.7 -07.5931 26281.0
 01 08 2013  17 01  -21.0040 26050.7 -03472.6 -07.5929 26281.1
 01 08 2013  17 02  -21.0038 26050.2 -03472.3 -07.5924 26280.6
 01 08 2013  17 03  -21.0031 26049.9 -03472.1 -07.5920 26280.2
 01 08 2013  17 04  -21.0027 26049.8 -03472.2 -07.5922 26280.2
 01 08 2013  17 05  -21.0019 26049.6 -03472.2 -07.5922 26280.0
 01 08 2013  17 06  -21.0020 26050.4 -03472.6 -07.5930 26280.9
 01 08 2013  17 07  -21.0026 26051.3 -03473.0 -07.5936 26281.8
 01 08 2013  17 08  -21.0027 26052.0 -03473.2 -07.5938 26282.5
 01 08 2013  17 09  -21.0031 26052.9 -03473.4 -07.5939 26283.5
 01 08 2013  17 10  -21.0035 26053.9 -03473.6 -07.5941 26284.4
 01 08 2013  17 11  -21.0038 26054.5 -03473.7 -07.5941 26285.1
 01 08 2013  17 12  -21.0038 26054.7 -03473.5 -07.5937 26285.2
 01 08 2013  17 13  -21.0035 26054.6 -03473.3 -07.5933 26285.1
 01 08 2013  17 14  -21.0030 26054.1 -03473.1 -07.5929 26284.6
 01 08 2013  17 15  -21.0023 26053.4 -03472.9 -07.5927 26283.9
 01 08 2013  17 16  -21.0013 26052.7 -03472.8 -07.5926 26283.1
 01 08 2013  17 17  -21.0007 26052.0 -03472.8 -07.5928 26282.5
 01 08 2013  17 18  -21.0003 26051.8 -03472.9 -07.5932 26282.2
 01 08 2013  17 19  -21.0004 26051.4 -03473.1 -07.5938 26281.9
 01 08 2013  17 20  -21.0005 26051.2 -03473.2 -07.5941 26281.7
 01 08 2013  17 21  -21.0000 26050.9 -03473.4 -07.5945 26281.4
 01 08 2013  17 22  -20.9996 26050.7 -03473.6 -07.5950 26281.2
 01 08 2013  17 23  -20.9996 26050.5 -03473.8 -07.5955 26281.1
 01 08 2013  17 24  -20.9996 26050.4 -03474.0 -07.5960 26281.0
 01 08 2013  17 25  -20.9994 26050.1 -03474.1 -07.5963 26280.7
 01 08 2013  17 26  -20.9994 26049.8 -03474.3 -07.5967 26280.5
 01 08 2013  17 27  -20.9994 26049.4 -03474.3 -07.5969 26280.0
 01 08 2013  17 28  -20.9993 26048.9 -03474.3 -07.5971 26279.6
 01 08 2013  17 29  -20.9994 26048.6 -03474.4 -07.5973 26279.3
 01 08 2013  17 30  -20.9993 26048.2 -03474.5 -07.5976 26278.9
 01 08 2013  17 31  -20.9993 26048.1 -03474.6 -07.5979 26278.8
 01 08 2013  17 32  -20.9994 26048.1 -03474.8 -07.5983 26278.8
 01 08 2013  17 33  -20.9995 26048.1 -03474.9 -07.5986 26278.8
 01 08 2013  17 34  -20.9997 26048.1 -03475.0 -07.5989 26278.9
 01 08 2013  17 35  -20.9997 26048.1 -03475.1 -07.5990 26278.9
 01 08 2013  17 36  -20.9997 26048.0 -03475.2 -07.5992 26278.8
 01 08 2013  17 37  -20.9998 26048.2 -03475.3 -07.5995 26279.0
 01 08 2013  17 38  -21.0001 26048.3 -03475.4 -07.5997 26279.1
 01 08 2013  17 39  -21.0003 26048.4 -03475.5 -07.5998 26279.2
 01 08 2013  17 40  -21.0006 26048.5 -03475.6 -07.5999 26279.4
 01 08 2013  17 41  -21.0007 26048.6 -03475.6 -07.5999 26279.4
 01 08 2013  17 42  -21.0008 26048.5 -03475.6 -07.5999 26279.4
 01 08 2013  17 43  -21.0008 26048.5 -03475.6 -07.6000 26279.3
 01 08 2013  17 44  -21.0010 26048.6 -03475.7 -07.6002 26279.4
 01 08 2013  17 45  -21.0012 26048.7 -03475.8 -07.6004 26279.5
 01 08 2013  17 46  -21.0012 26048.6 -03475.8 -07.6004 26279.5
 01 08 2013  17 47  -21.0013 26048.5 -03475.9 -07.6005 26279.4
 01 08 2013  17 48  -21.0017 26048.6 -03476.0 -07.6007 26279.5
 01 08 2013  17 49  -21.0023 26048.9 -03476.1 -07.6010 26279.9
 01 08 2013  17 50  -21.0029 26049.1 -03476.2 -07.6010 26280.1
 01 08 2013  17 51  -21.0034 26049.3 -03476.1 -07.6009 26280.2
 01 08 2013  17 52  -21.0037 26049.3 -03476.1 -07.6008 26280.2
 01 08 2013  17 53  -21.0038 26049.1 -03476.0 -07.6006 26280.0
 01 08 2013  17 54  -21.0037 26048.6 -03475.8 -07.6003 26279.5
 01 08 2013  17 55  -21.0037 26048.4 -03475.7 -07.6003 26279.2
 01 08 2013  17 56  -21.0040 26048.3 -03475.8 -07.6004 26279.2
 01 08 2013  17 57  -21.0043 26048.3 -03475.9 -07.6006 26279.2
 01 08 2013  17 58  -21.0048 26048.4 -03476.0 -07.6008 26279.3
 01 08 2013  17 59  -21.0051 26048.3 -03475.9 -07.6007 26279.2
 01 08 2013  18 00  -21.0054 26048.3 -03475.9 -07.6007 26279.2
 01 08 2013  18 01  -21.0057 26048.4 -03475.9 -07.6007 26279.3
 01 08 2013  18 02  -21.0061 26048.4 -03475.9 -07.6006 26279.3
 01 08 2013  18 03  -21.0062 26048.5 -03475.9 -07.6006 26279.4
 01 08 2013  18 04  -21.0065 26048.6 -03476.0 -07.6007 26279.5
 01 08 2013  18 05  -21.0067 26048.4 -03475.9 -07.6006 26279.2
 01 08 2013  18 06  -21.0070 26048.3 -03475.9 -07.6006 26279.2
 01 08 2013  18 07  -21.0071 26048.2 -03475.9 -07.6006 26279.1
 01 08 2013  18 08  -21.0070 26048.0 -03475.8 -07.6005 26278.8
 01 08 2013  18 09  -21.0071 26047.7 -03475.7 -07.6005 26278.6
 01 08 2013  18 10  -21.0075 26047.7 -03475.8 -07.6006 26278.6
 01 08 2013  18 11  -21.0080 26047.7 -03475.8 -07.6006 26278.5
 01 08 2013  18 12  -21.0085 26047.6 -03475.7 -07.6005 26278.5
 01 08 2013  18 13  -21.0090 26047.5 -03475.7 -07.6004 26278.4
 01 08 2013  18 14  -21.0093 26047.2 -03475.5 -07.6002 26278.1
 01 08 2013  18 15  -21.0096 26047.0 -03475.4 -07.6001 26277.8
 01 08 2013  18 16  -21.0100 26046.9 -03475.4 -07.6000 26277.7
 01 08 2013  18 17  -21.0104 26046.8 -03475.4 -07.6000 26277.6
 01 08 2013  18 18  -21.0109 26046.7 -03475.4 -07.6000 26277.5
 01 08 2013  18 19  -21.0113 26046.6 -03475.3 -07.5998 26277.4
 01 08 2013  18 20  -21.0116 26046.5 -03475.2 -07.5997 26277.3
 01 08 2013  18 21  -21.0119 26046.6 -03475.2 -07.5996 26277.4
 01 08 2013  18 22  -21.0122 26046.6 -03475.2 -07.5996 26277.4
 01 08 2013  18 23  -21.0124 26046.6 -03475.1 -07.5994 26277.4
 01 08 2013  18 24  -21.0126 26046.7 -03475.1 -07.5993 26277.5
 01 08 2013  18 25  -21.0129 26046.7 -03475.0 -07.5991 26277.5
 01 08 2013  18 26  -21.0132 26046.7 -03474.8 -07.5988 26277.4
 01 08 2013  18 27  -21.0134 26046.6 -03474.8 -07.5987 26277.4
 01 08 2013  18 28  -21.0136 26046.7 -03474.7 -07.5985 26277.4
 01 08 2013  18 29  -21.0138 26046.6 -03474.6 -07.5982 26277.3
 01 08 2013  18 30  -21.0139 26046.6 -03474.4 -07.5980 26277.3
 01 08 2013  18 31  -21.0142 26046.5 -03474.3 -07.5978 26277.2
 01 08 2013  18 32  -21.0144 26046.5 -03474.2 -07.5975 26277.2
 01 08 2013  18 33  -21.0146 26046.5 -03474.1 -07.5973 26277.2
 01 08 2013  18 34  -21.0149 26046.5 -03474.0 -07.5971 26277.1
 01 08 2013  18 35  -21.0151 26046.4 -03473.9 -07.5969 26277.1
 01 08 2013  18 36  -21.0152 26046.4 -03473.8 -07.5967 26277.0
 01 08 2013  18 37  -21.0155 26046.4 -03473.7 -07.5965 26277.0
 01 08 2013  18 38  -21.0157 26046.5 -03473.6 -07.5963 26277.1
 01 08 2013  18 39  -21.0158 26046.6 -03473.5 -07.5961 26277.2
 01 08 2013  18 40  -21.0160 26046.6 -03473.4 -07.5958 26277.2
 01 08 2013  18 41  -21.0161 26046.7 -03473.3 -07.5956 26277.2
 01 08 2013  18 42  -21.0161 26046.7 -03473.2 -07.5954 26277.2
 01 08 2013  18 43  -21.0159 26046.5 -03473.1 -07.5950 26277.1
 01 08 2013  18 44  -21.0157 26046.3 -03472.9 -07.5948 26276.8
 01 08 2013  18 45  -21.0158 26046.3 -03472.8 -07.5946 26276.8
 01 08 2013  18 46  -21.0156 26046.1 -03472.7 -07.5944 26276.6
 01 08 2013  18 47  -21.0153 26045.9 -03472.6 -07.5942 26276.4
 01 08 2013  18 48  -21.0152 26045.8 -03472.5 -07.5941 26276.3
 01 08 2013  18 49  -21.0151 26045.8 -03472.5 -07.5941 26276.3
 01 08 2013  18 50  -21.0149 26045.7 -03472.5 -07.5941 26276.2
 01 08 2013  18 51  -21.0148 26045.8 -03472.5 -07.5941 26276.2
 01 08 2013  18 52  -21.0149 26045.8 -03472.5 -07.5941 26276.3
 01 08 2013  18 53  -21.0148 26045.9 -03472.6 -07.5941 26276.4
 01 08 2013  18 54  -21.0148 26046.1 -03472.6 -07.5942 26276.5
 01 08 2013  18 55  -21.0147 26046.2 -03472.6 -07.5941 26276.6
 01 08 2013  18 56  -21.0148 26046.3 -03472.6 -07.5942 26276.8
 01 08 2013  18 57  -21.0148 26046.4 -03472.6 -07.5941 26276.9
 01 08 2013  18 58  -21.0147 26046.5 -03472.6 -07.5941 26277.0
 01 08 2013  18 59  -21.0148 26046.6 -03472.6 -07.5941 26277.1
 01 08 2013  19 00  -21.0148 26046.6 -03472.6 -07.5939 26277.0
 01 08 2013  19 01  -21.0147 26046.5 -03472.5 -07.5938 26277.0
 01 08 2013  19 02  -21.0147 26046.5 -03472.4 -07.5936 26277.0
 01 08 2013  19 03  -21.0146 26046.4 -03472.3 -07.5934 26276.8
 01 08 2013  19 04  -21.0146 26046.5 -03472.2 -07.5931 26276.9
 01 08 2013  19 05  -21.0151 26046.3 -03472.1 -07.5930 26276.7
 01 08 2013  19 06  -21.0148 26046.1 -03472.0 -07.5928 26276.5
 01 08 2013  19 07  -21.0148 26046.0 -03471.9 -07.5927 26276.4
 01 08 2013  19 08  -21.0146 26045.9 -03471.9 -07.5926 26276.3
 01 08 2013  19 09  -21.0146 26045.9 -03471.8 -07.5925 26276.3
 01 08 2013  19 10  -21.0146 26045.8 -03471.7 -07.5924 26276.2
 01 08 2013  19 11  -21.0147 26045.8 -03471.7 -07.5924 26276.2
 01 08 2013  19 12  -21.0148 26045.9 -03471.7 -07.5923 26276.2
 01 08 2013  19 13  -21.0147 26045.9 -03471.6 -07.5921 26276.2
 01 08 2013  19 14  -21.0148 26045.9 -03471.6 -07.5920 26276.2
 01 08 2013  19 15  -21.0149 26045.9 -03471.5 -07.5918 26276.2
 01 08 2013  19 16  -21.0150 26045.9 -03471.4 -07.5917 26276.2
 01 08 2013  19 17  -21.0149 26045.8 -03471.4 -07.5916 26276.1
 01 08 2013  19 18  -21.0150 26045.8 -03471.3 -07.5915 26276.1
 01 08 2013  19 19  -21.0151 26045.9 -03471.3 -07.5914 26276.2
 01 08 2013  19 20  -21.0152 26045.9 -03471.2 -07.5913 26276.2
 01 08 2013  19 21  -21.0152 26045.8 -03471.1 -07.5911 26276.1
 01 08 2013  19 22  -21.0152 26045.8 -03471.1 -07.5910 26276.1
 01 08 2013  19 23  -21.0153 26045.8 -03471.1 -07.5909 26276.1
 01 08 2013  19 24  -21.0153 26045.8 -03471.0 -07.5908 26276.1
 01 08 2013  19 25  -21.0154 26045.8 -03471.0 -07.5908 26276.1
 01 08 2013  19 26  -21.0155 26045.8 -03470.9 -07.5906 26276.1
 01 08 2013  19 27  -21.0157 26045.8 -03470.9 -07.5905 26276.0
 01 08 2013  19 28  -21.0158 26045.7 -03470.8 -07.5903 26276.0
 01 08 2013  19 29  -21.0158 26045.7 -03470.7 -07.5902 26275.9
 01 08 2013  19 30  -21.0159 26045.6 -03470.5 -07.5899 26275.8
 01 08 2013  19 31  -21.0160 26045.4 -03470.4 -07.5896 26275.6
 01 08 2013  19 32  -21.0161 26045.3 -03470.3 -07.5894 26275.5
 01 08 2013  19 33  -21.0163 26045.3 -03470.2 -07.5892 26275.4
 01 08 2013  19 34  -21.0164 26045.1 -03470.1 -07.5890 26275.3
 01 08 2013  19 35  -21.0164 26045.0 -03469.9 -07.5887 26275.1
 01 08 2013  19 36  -21.0165 26044.9 -03469.8 -07.5885 26275.0
 01 08 2013  19 37  -21.0165 26044.8 -03469.7 -07.5883 26274.9
 01 08 2013  19 38  -21.0168 26044.8 -03469.6 -07.5881 26274.9
 01 08 2013  19 39  -21.0170 26044.7 -03469.5 -07.5879 26274.8
 01 08 2013  19 40  -21.0172 26044.6 -03469.4 -07.5876 26274.7
 01 08 2013  19 41  -21.0173 26044.5 -03469.2 -07.5873 26274.5
 01 08 2013  19 42  -21.0174 26044.4 -03469.1 -07.5871 26274.4
 01 08 2013  19 43  -21.0175 26044.5 -03469.0 -07.5869 26274.5
 01 08 2013  19 44  -21.0177 26044.5 -03469.0 -07.5868 26274.5
 01 08 2013  19 45  -21.0179 26044.5 -03468.9 -07.5866 26274.5
 01 08 2013  19 46  -21.0181 26044.5 -03468.8 -07.5864 26274.5
 01 08 2013  19 47  -21.0181 26044.4 -03468.6 -07.5861 26274.3
 01 08 2013  19 48  -21.0182 26044.4 -03468.6 -07.5859 26274.3
 01 08 2013  19 49  -21.0184 26044.3 -03468.4 -07.5857 26274.3
 01 08 2013  19 50  -21.0185 26044.4 -03468.4 -07.5855 26274.3
 01 08 2013  19 51  -21.0186 26044.3 -03468.3 -07.5853 26274.2
 01 08 2013  19 52  -21.0187 26044.2 -03468.1 -07.5851 26274.1
 01 08 2013  19 53  -21.0187 26044.2 -03468.1 -07.5849 26274.0
 01 08 2013  19 54  -21.0188 26044.1 -03468.0 -07.5847 26274.0
 01 08 2013  19 55  -21.0189 26044.1 -03467.9 -07.5846 26274.0
 01 08 2013  19 56  -21.0189 26044.0 -03467.8 -07.5843 26273.9
 01 08 2013  19 57  -21.0189 26043.9 -03467.7 -07.5842 26273.7
 01 08 2013  19 58  -21.0189 26043.8 -03467.6 -07.5840 26273.7
 01 08 2013  19 59  -21.0189 26043.7 -03467.5 -07.5839 26273.5
 01 08 2013  20 00  -21.0189 26043.5 -03467.4 -07.5837 26273.3
 01 08 2013  20 01  -21.0189 26043.1 -03467.2 -07.5833 26272.9
 01 08 2013  20 02  -21.0186 26042.9 -03467.1 -07.5831 26272.7
 01 08 2013  20 03  -21.0186 26043.2 -03467.2 -07.5833 26273.0
 01 08 2013  20 04  -21.0186 26043.5 -03467.3 -07.5835 26273.3
 01 08 2013  20 05  -21.0185 26043.6 -03467.3 -07.5835 26273.4
 01 08 2013  20 06  -21.0189 26043.5 -03467.3 -07.5834 26273.3
 01 08 2013  20 07  -21.0188 26043.4 -03467.2 -07.5832 26273.2
 01 08 2013  20 08  -21.0200 26043.1 -03467.0 -07.5828 26272.9
 01 08 2013  20 09  -21.0255 26042.7 -03466.7 -07.5824 26272.4
 01 08 2013  20 10  -21.0265 26042.9 -03466.7 -07.5823 26272.7
 01 08 2013  20 11  -21.0265 26043.0 -03466.7 -07.5824 26272.7
 01 08 2013  20 12  -21.0265 26042.9 -03466.7 -07.5823 26272.6
 01 08 2013  20 13  -21.0266 26042.8 -03466.6 -07.5822 26272.5
 01 08 2013  20 14  -21.0269 26042.7 -03466.6 -07.5821 26272.4
 01 08 2013  20 15  -21.0266 26042.6 -03466.5 -07.5820 26272.3
 01 08 2013  20 16  -21.0266 26042.4 -03466.4 -07.5818 26272.1
 01 08 2013  20 17  -21.0238 26041.9 -03466.3 -07.5817 26271.6
 01 08 2013  20 18  -21.0226 26041.8 -03466.2 -07.5816 26271.5
 01 08 2013  20 19  -21.0218 26041.8 -03466.3 -07.5818 26271.5
 01 08 2013  20 20  -21.0186 26042.4 -03466.7 -07.5825 26272.1
 01 08 2013  20 21  -21.0186 26042.5 -03466.8 -07.5827 26272.2
 01 08 2013  20 22  -21.0186 26042.5 -03466.9 -07.5828 26272.3
 01 08 2013  20 23  -21.0187 26042.5 -03466.9 -07.5828 26272.2
 01 08 2013  20 24  -21.0188 26042.4 -03466.9 -07.5829 26272.2
 01 08 2013  20 25  -21.0190 26042.3 -03466.9 -07.5830 26272.1
 01 08 2013  20 26  -21.0191 26042.2 -03466.9 -07.5830 26272.0
 01 08 2013  20 27  -21.0192 26042.1 -03466.9 -07.5830 26271.8
 01 08 2013  20 28  -21.0193 26041.9 -03466.9 -07.5830 26271.7
 01 08 2013  20 29  -21.0194 26041.7 -03466.8 -07.5829 26271.5
 01 08 2013  20 30  -21.0195 26041.5 -03466.8 -07.5830 26271.3
 01 08 2013  20 31  -21.0196 26041.4 -03466.8 -07.5830 26271.1
 01 08 2013  20 32  -21.0196 26041.3 -03466.9 -07.5831 26271.0
 01 08 2013  20 33  -21.0196 26041.3 -03467.0 -07.5834 26271.1
 01 08 2013  20 34  -21.0198 26041.4 -03467.1 -07.5837 26271.2
 01 08 2013  20 35  -21.0200 26041.4 -03467.2 -07.5839 26271.2
 01 08 2013  20 36  -21.0201 26041.4 -03467.3 -07.5841 26271.2
 01 08 2013  20 37  -21.0203 26041.4 -03467.4 -07.5843 26271.2
 01 08 2013  20 38  -21.0206 26041.4 -03467.4 -07.5844 26271.2
 01 08 2013  20 39  -21.0208 26041.2 -03467.4 -07.5844 26271.0
 01 08 2013  20 40  -21.0211 26040.9 -03467.4 -07.5844 26270.7
 01 08 2013  20 41  -21.0213 26040.6 -03467.3 -07.5843 26270.5
 01 08 2013  20 42  -21.0215 26040.4 -03467.3 -07.5843 26270.2
 01 08 2013  20 43  -21.0216 26040.1 -03467.2 -07.5843 26269.9
 01 08 2013  20 44  -21.0218 26039.9 -03467.2 -07.5844 26269.7
 01 08 2013  20 45  -21.0219 26039.6 -03467.3 -07.5845 26269.4
 01 08 2013  20 46  -21.0221 26039.5 -03467.3 -07.5847 26269.3
 01 08 2013  20 47  -21.0223 26039.3 -03467.4 -07.5848 26269.2
 01 08 2013  20 48  -21.0226 26039.2 -03467.4 -07.5850 26269.0
 01 08 2013  20 49  -21.0228 26039.0 -03467.5 -07.5851 26268.9
 01 08 2013  20 50  -21.0231 26038.9 -03467.5 -07.5853 26268.8
 01 08 2013  20 51  -21.0234 26038.9 -03467.6 -07.5855 26268.8
 01 08 2013  20 52  -21.0236 26038.8 -03467.7 -07.5856 26268.6
 01 08 2013  20 53  -21.0239 26038.8 -03467.8 -07.5858 26268.7
 01 08 2013  20 54  -21.0241 26038.8 -03467.8 -07.5860 26268.7
 01 08 2013  20 55  -21.0243 26038.7 -03467.9 -07.5860 26268.7
 01 08 2013  20 56  -21.0245 26038.8 -03468.0 -07.5862 26268.7
 01 08 2013  20 57  -21.0247 26039.0 -03468.2 -07.5867 26269.0
 01 08 2013  20 58  -21.0250 26039.2 -03468.4 -07.5871 26269.2
 01 08 2013  20 59  -21.0254 26039.4 -03468.6 -07.5874 26269.4
 01 08 2013  21 00  -21.0258 26039.5 -03468.7 -07.5875 26269.5
 01 08 2013  21 01  -21.0262 26039.7 -03468.8 -07.5878 26269.7
 01 08 2013  21 02  -21.0267 26039.8 -03468.9 -07.5879 26269.8
 01 08 2013  21 03  -21.0271 26039.8 -03468.8 -07.5878 26269.8
 01 08 2013  21 04  -21.0274 26039.7 -03468.8 -07.5877 26269.7
 01 08 2013  21 05  -21.0278 26039.6 -03468.7 -07.5875 26269.6
 01 08 2013  21 06  -21.0280 26039.5 -03468.6 -07.5874 26269.5
 01 08 2013  21 07  -21.0281 26039.3 -03468.5 -07.5872 26269.3
 01 08 2013  21 08  -21.0281 26039.2 -03468.4 -07.5871 26269.2
 01 08 2013  21 09  -21.0283 26039.1 -03468.3 -07.5869 26269.0
 01 08 2013  21 10  -21.0283 26038.9 -03468.2 -07.5868 26268.9
 01 08 2013  21 11  -21.0286 26038.9 -03468.3 -07.5870 26268.9
 01 08 2013  21 12  -21.0287 26039.0 -03468.4 -07.5871 26269.0
 01 08 2013  21 13  -21.0290 26039.0 -03468.4 -07.5871 26269.0
 01 08 2013  21 14  -21.0293 26039.0 -03468.4 -07.5872 26269.0
 01 08 2013  21 15  -21.0295 26038.9 -03468.4 -07.5872 26268.9
 01 08 2013  21 16  -21.0298 26038.9 -03468.4 -07.5873 26268.9
 01 08 2013  21 17  -21.0301 26038.9 -03468.4 -07.5872 26268.9
 01 08 2013  21 18  -21.0304 26038.9 -03468.4 -07.5871 26268.9
 01 08 2013  21 19  -21.0305 26039.0 -03468.5 -07.5873 26269.0
 01 08 2013  21 20  -21.0308 26039.1 -03468.5 -07.5874 26269.1
 01 08 2013  21 21  -21.0309 26039.1 -03468.6 -07.5874 26269.1
 01 08 2013  21 22  -21.0311 26039.1 -03468.5 -07.5874 26269.1
 01 08 2013  21 23  -21.0313 26039.1 -03468.6 -07.5874 26269.1
 01 08 2013  21 24  -21.0314 26039.1 -03468.5 -07.5873 26269.0
 01 08 2013  21 25  -21.0317 26038.9 -03468.4 -07.5872 26268.8
 01 08 2013  21 26  -21.0318 26038.6 -03468.3 -07.5870 26268.6
 01 08 2013  21 27  -21.0318 26038.4 -03468.2 -07.5869 26268.4
 01 08 2013  21 28  -21.0320 26038.4 -03468.2 -07.5868 26268.4
 01 08 2013  21 29  -21.0322 26038.6 -03468.2 -07.5869 26268.5
 01 08 2013  21 30  -21.0323 26038.9 -03468.4 -07.5872 26268.9
 01 08 2013  21 31  -21.0323 26039.1 -03468.5 -07.5874 26269.1
 01 08 2013  21 32  -21.0325 26038.9 -03468.4 -07.5872 26268.9
 01 08 2013  21 33  -21.0330 26038.3 -03468.1 -07.5868 26268.3
 01 08 2013  21 34  -21.0337 26038.5 -03468.2 -07.5869 26268.4
 01 08 2013  21 35  -21.0331 26038.8 -03468.3 -07.5871 26268.7
 01 08 2013  21 36  -21.0330 26038.6 -03468.2 -07.5868 26268.5
 01 08 2013  21 37  -21.0332 26038.3 -03468.1 -07.5867 26268.3
 01 08 2013  21 38  -21.0335 26038.2 -03468.0 -07.5866 26268.2
 01 08 2013  21 39  -21.0335 26038.3 -03468.1 -07.5866 26268.3
 01 08 2013  21 40  -21.0335 26038.4 -03468.1 -07.5866 26268.3
 01 08 2013  21 41  -21.0335 26038.3 -03468.0 -07.5866 26268.2
 01 08 2013  21 42  -21.0335 26038.2 -03468.0 -07.5865 26268.2
 01 08 2013  21 43  -21.0335 26038.3 -03468.0 -07.5865 26268.2
 01 08 2013  21 44  -21.0337 26038.2 -03468.0 -07.5865 26268.2
 01 08 2013  21 45  -21.0337 26038.4 -03468.0 -07.5865 26268.3
 01 08 2013  21 46  -21.0338 26038.5 -03468.1 -07.5866 26268.4
 01 08 2013  21 47  -21.0337 26038.5 -03468.1 -07.5866 26268.5
 01 08 2013  21 48  -21.0337 26038.5 -03468.1 -07.5866 26268.5
 01 08 2013  21 49  -21.0339 26038.5 -03468.1 -07.5866 26268.5
 01 08 2013  21 50  -21.0339 26038.5 -03468.1 -07.5866 26268.4
 01 08 2013  21 51  -21.0338 26038.5 -03468.1 -07.5866 26268.5
 01 08 2013  21 52  -21.0338 26038.5 -03468.1 -07.5866 26268.5
 01 08 2013  21 53  -21.0337 26038.5 -03468.1 -07.5866 26268.5
 01 08 2013  21 54  -21.0336 26038.6 -03468.1 -07.5866 26268.5
 01 08 2013  21 55  -21.0335 26038.6 -03468.1 -07.5865 26268.6
 01 08 2013  21 56  -21.0335 26038.6 -03468.1 -07.5865 26268.6
 01 08 2013  21 57  -21.0334 26038.6 -03468.1 -07.5865 26268.6
 01 08 2013  21 58  -21.0333 26038.6 -03468.1 -07.5865 26268.6
 01 08 2013  21 59  -21.0333 26038.6 -03468.0 -07.5865 26268.5
 01 08 2013  22 00  -21.0333 26038.6 -03468.0 -07.5865 26268.5
 01 08 2013  22 01  -21.0332 26038.6 -03468.0 -07.5865 26268.6
 01 08 2013  22 02  -21.0332 26038.6 -03468.0 -07.5865 26268.6
 01 08 2013  22 03  -21.0332 26038.6 -03468.0 -07.5864 26268.6
 01 08 2013  22 04  -21.0332 26038.6 -03468.0 -07.5864 26268.6
 01 08 2013  22 05  -21.0332 26038.5 -03468.0 -07.5863 26268.5
 01 08 2013  22 06  -21.0332 26038.4 -03467.9 -07.5863 26268.4
 01 08 2013  22 07  -21.0333 26038.4 -03467.9 -07.5862 26268.3
 01 08 2013  22 08  -21.0333 26038.3 -03467.9 -07.5862 26268.2
 01 08 2013  22 09  -21.0333 26038.2 -03467.8 -07.5861 26268.1
 01 08 2013  22 10  -21.0333 26038.1 -03467.8 -07.5860 26268.0
 01 08 2013  22 11  -21.0333 26038.1 -03467.7 -07.5859 26268.0
 01 08 2013  22 12  -21.0333 26038.0 -03467.7 -07.5859 26267.9
 01 08 2013  22 13  -21.0332 26037.9 -03467.7 -07.5859 26267.8
 01 08 2013  22 14  -21.0332 26037.9 -03467.7 -07.5859 26267.8
 01 08 2013  22 15  -21.0331 26037.9 -03467.7 -07.5859 26267.8
 01 08 2013  22 16  -21.0330 26037.9 -03467.7 -07.5859 26267.8
 01 08 2013  22 17  -21.0329 26037.8 -03467.7 -07.5860 26267.7
 01 08 2013  22 18  -21.0328 26037.8 -03467.7 -07.5859 26267.7
 01 08 2013  22 19  -21.0328 26037.8 -03467.7 -07.5860 26267.7
 01 08 2013  22 20  -21.0327 26037.8 -03467.7 -07.5860 26267.7
 01 08 2013  22 21  -21.0326 26037.8 -03467.7 -07.5860 26267.7
 01 08 2013  22 22  -21.0325 26037.8 -03467.7 -07.5860 26267.7
 01 08 2013  22 23  -21.0324 26037.7 -03467.7 -07.5860 26267.6
 01 08 2013  22 24  -21.0323 26037.7 -03467.7 -07.5860 26267.6
 01 08 2013  22 25  -21.0323 26037.7 -03467.7 -07.5860 26267.6
 01 08 2013  22 26  -21.0322 26037.7 -03467.8 -07.5861 26267.6
 01 08 2013  22 27  -21.0320 26037.8 -03467.8 -07.5862 26267.7
 01 08 2013  22 28  -21.0319 26037.8 -03467.8 -07.5862 26267.7
 01 08 2013  22 29  -21.0318 26037.8 -03467.8 -07.5862 26267.7
 01 08 2013  22 30  -21.0317 26037.8 -03467.9 -07.5863 26267.7
 01 08 2013  22 31  -21.0316 26037.8 -03467.9 -07.5864 26267.7
 01 08 2013  22 32  -21.0315 26037.8 -03467.9 -07.5864 26267.7
 01 08 2013  22 33  -21.0314 26037.8 -03467.9 -07.5864 26267.7
 01 08 2013  22 34  -21.0314 26037.9 -03467.9 -07.5864 26267.8
 01 08 2013  22 35  -21.0313 26037.9 -03468.0 -07.5866 26267.8
 01 08 2013  22 36  -21.0312 26037.9 -03468.0 -07.5865 26267.9
 01 08 2013  22 37  -21.0309 26037.9 -03468.0 -07.5866 26267.9
 01 08 2013  22 38  -21.0307 26037.9 -03468.0 -07.5865 26267.8
 01 08 2013  22 39  -21.0307 26037.9 -03468.0 -07.5866 26267.8
 01 08 2013  22 40  -21.0306 26037.9 -03468.0 -07.5867 26267.9
 01 08 2013  22 41  -21.0305 26038.0 -03468.1 -07.5867 26267.9
 01 08 2013  22 42  -21.0304 26037.9 -03468.1 -07.5868 26267.9
 01 08 2013  22 43  -21.0303 26038.0 -03468.1 -07.5868 26267.9
 01 08 2013  22 44  -21.0303 26037.8 -03468.1 -07.5868 26267.8
 01 08 2013  22 45  -21.0303 26037.7 -03468.0 -07.5867 26267.7
 01 08 2013  22 46  -21.0304 26037.6 -03468.0 -07.5867 26267.5
 01 08 2013  22 47  -21.0304 26037.4 -03468.0 -07.5867 26267.4
 01 08 2013  22 48  -21.0303 26037.4 -03467.9 -07.5866 26267.3
 01 08 2013  22 49  -21.0302 26037.3 -03468.0 -07.5866 26267.2
 01 08 2013  22 50  -21.0302 26037.3 -03468.0 -07.5867 26267.2
 01 08 2013  22 51  -21.0301 26037.3 -03468.0 -07.5867 26267.2
 01 08 2013  22 52  -21.0300 26037.3 -03468.0 -07.5868 26267.2
 01 08 2013  22 53  -21.0300 26037.3 -03468.0 -07.5868 26267.3
 01 08 2013  22 54  -21.0299 26037.4 -03468.1 -07.5869 26267.3
 01 08 2013  22 55  -21.0298 26037.4 -03468.1 -07.5870 26267.3
 01 08 2013  22 56  -21.0298 26037.4 -03468.1 -07.5870 26267.3
 01 08 2013  22 57  -21.0297 26037.4 -03468.2 -07.5871 26267.4
 01 08 2013  22 58  -21.0297 26037.4 -03468.2 -07.5871 26267.4
 01 08 2013  22 59  -21.0295 26037.4 -03468.2 -07.5872 26267.4
 01 08 2013  23 00  -21.0295 26037.4 -03468.3 -07.5873 26267.4
 01 08 2013  23 01  -21.0294 26037.5 -03468.3 -07.5873 26267.4
 01 08 2013  23 02  -21.0293 26037.4 -03468.3 -07.5874 26267.4
 01 08 2013  23 03  -21.0293 26037.4 -03468.3 -07.5874 26267.4
 01 08 2013  23 04  -21.0292 26037.4 -03468.3 -07.5874 26267.4
 01 08 2013  23 05  -21.0292 26037.4 -03468.4 -07.5875 26267.4
 01 08 2013  23 06  -21.0292 26037.4 -03468.4 -07.5875 26267.4
 01 08 2013  23 07  -21.0291 26037.4 -03468.4 -07.5876 26267.4
 01 08 2013  23 08  -21.0291 26037.4 -03468.4 -07.5876 26267.4
 01 08 2013  23 09  -21.0291 26037.3 -03468.4 -07.5876 26267.3
 01 08 2013  23 10  -21.0292 26037.2 -03468.4 -07.5876 26267.2
 01 08 2013  23 11  -21.0291 26037.2 -03468.4 -07.5876 26267.2
 01 08 2013  23 12  -21.0292 26037.1 -03468.3 -07.5875 26267.1
 01 08 2013  23 13  -21.0292 26037.0 -03468.3 -07.5876 26267.0
 01 08 2013  23 14  -21.0292 26037.0 -03468.3 -07.5876 26267.0
 01 08 2013  23 15  -21.0292 26036.9 -03468.3 -07.5876 26266.9
 01 08 2013  23 16  -21.0292 26036.9 -03468.3 -07.5876 26266.9
 01 08 2013  23 17  -21.0292 26037.0 -03468.4 -07.5877 26267.0
 01 08 2013  23 18  -21.0291 26037.0 -03468.4 -07.5877 26267.0
 01 08 2013  23 19  -21.0292 26036.9 -03468.4 -07.5877 26266.9
 01 08 2013  23 20  -21.0291 26036.9 -03468.4 -07.5877 26266.9
 01 08 2013  23 21  -21.0291 26036.9 -03468.4 -07.5877 26266.9
 01 08 2013  23 22  -21.0292 26036.9 -03468.4 -07.5877 26266.9
 01 08 2013  23 23  -21.0291 26036.9 -03468.4 -07.5878 26266.9
 01 08 2013  23 24  -21.0292 26036.9 -03468.4 -07.5878 26266.9
 01 08 2013  23 25  -21.0292 26036.9 -03468.5 -07.5879 26266.9
 01 08 2013  23 26  -21.0292 26036.9 -03468.5 -07.5879 26266.9
 01 08 2013  23 27  -21.0292 26036.9 -03468.5 -07.5880 26266.9
 01 08 2013  23 28  -21.0292 26036.9 -03468.6 -07.5881 26267.0
 01 08 2013  23 29  -21.0293 26036.9 -03468.6 -07.5881 26266.9
 01 08 2013  23 30  -21.0293 26037.0 -03468.6 -07.5881 26267.0
 01 08 2013  23 31  -21.0293 26037.0 -03468.6 -07.5881 26267.0
 01 08 2013  23 32  -21.0292 26037.0 -03468.6 -07.5882 26267.1
 01 08 2013  23 33  -21.0290 26037.1 -03468.6 -07.5881 26267.1
 01 08 2013  23 34  -21.0288 26037.0 -03468.6 -07.5881 26267.1
 01 08 2013  23 35  -21.0287 26037.0 -03468.6 -07.5882 26267.0
 01 08 2013  23 36  -21.0287 26036.9 -03468.6 -07.5881 26266.9
 01 08 2013  23 37  -21.0286 26036.8 -03468.5 -07.5881 26266.8
 01 08 2013  23 38  -21.0284 26036.8 -03468.6 -07.5881 26266.9
 01 08 2013  23 39  -21.0283 26036.9 -03468.6 -07.5882 26266.9
 01 08 2013  23 40  -21.0282 26036.9 -03468.6 -07.5883 26266.9
 01 08 2013  23 41  -21.0281 26036.9 -03468.7 -07.5883 26266.9
 01 08 2013  23 42  -21.0280 26036.7 -03468.6 -07.5883 26266.8
 01 08 2013  23 43  -21.0280 26036.7 -03468.6 -07.5883 26266.7
 01 08 2013  23 44  -21.0280 26036.6 -03468.6 -07.5883 26266.7
 01 08 2013  23 45  -21.0280 26036.5 -03468.6 -07.5883 26266.6
 01 08 2013  23 46  -21.0282 26036.5 -03468.6 -07.5883 26266.5
 01 08 2013  23 47  -21.0283 26036.5 -03468.7 -07.5884 26266.6
 01 08 2013  23 48  -21.0282 26036.5 -03468.7 -07.5885 26266.6
 01 08 2013  23 49  -21.0280 26036.6 -03468.7 -07.5886 26266.6
 01 08 2013  23 50  -21.0278 26036.6 -03468.7 -07.5886 26266.6
 01 08 2013  23 51  -21.0275 26036.6 -03468.8 -07.5886 26266.7
 01 08 2013  23 52  -21.0273 26036.6 -03468.8 -07.5886 26266.7
 01 08 2013  23 53  -21.0271 26036.7 -03468.8 -07.5888 26266.8
 01 08 2013  23 54  -21.0271 26036.8 -03468.9 -07.5889 26266.9
 01 08 2013  23 55  -21.0270 26036.8 -03469.0 -07.5890 26266.9
 01 08 2013  23 56  -21.0270 26036.9 -03469.0 -07.5891 26267.0
 01 08 2013  23 57  -21.0271 26036.9 -03469.1 -07.5892 26267.0
 01 08 2013  23 58  -21.0273 26036.9 -03469.1 -07.5892 26267.0
