SAO LUIS EMBRACE-03 <307> 1 Min. Reported data

 DD MM YYYY  HH MM   D(Deg)  H(nT)   Z(nT)   I(Deg)   F(nT)

 03 11 2013  00 00  -21.0217 26013.5 -03499.1 -07.6608 26247.8
 03 11 2013  00 01  -21.0213 26013.5 -03499.1 -07.6609 26247.7
 03 11 2013  00 02  -21.0211 26013.4 -03499.1 -07.6610 26247.7
 03 11 2013  00 03  -21.0210 26013.4 -03499.2 -07.6612 26247.7
 03 11 2013  00 04  -21.0209 26013.5 -03499.3 -07.6613 26247.8
 03 11 2013  00 05  -21.0210 26013.4 -03499.4 -07.6615 26247.8
 03 11 2013  00 06  -21.0210 26013.4 -03499.4 -07.6615 26247.7
 03 11 2013  00 07  -21.0212 26013.4 -03499.4 -07.6617 26247.7
 03 11 2013  00 08  -21.0213 26013.4 -03499.5 -07.6617 26247.7
 03 11 2013  00 09  -21.0214 26013.4 -03499.5 -07.6619 26247.8
 03 11 2013  00 10  -21.0216 26013.5 -03499.6 -07.6621 26247.9
 03 11 2013  00 11  -21.0218 26013.5 -03499.7 -07.6621 26247.8
 03 11 2013  00 12  -21.0222 26013.5 -03499.7 -07.6622 26247.8
 03 11 2013  00 13  -21.0226 26013.5 -03499.7 -07.6623 26247.9
 03 11 2013  00 14  -21.0229 26013.5 -03499.7 -07.6623 26247.8
 03 11 2013  00 15  -21.0233 26013.3 -03499.7 -07.6622 26247.7
 03 11 2013  00 16  -21.0236 26013.1 -03499.6 -07.6620 26247.4
 03 11 2013  00 17  -21.0239 26013.0 -03499.6 -07.6620 26247.4
 03 11 2013  00 18  -21.0245 26013.0 -03499.6 -07.6621 26247.4
 03 11 2013  00 19  -21.0250 26012.9 -03499.6 -07.6621 26247.3
 03 11 2013  00 20  -21.0253 26012.8 -03499.5 -07.6620 26247.2
 03 11 2013  00 21  -21.0252 26012.7 -03499.5 -07.6619 26247.0
 03 11 2013  00 22  -21.0252 26012.6 -03499.4 -07.6619 26247.0
 03 11 2013  00 23  -21.0252 26012.6 -03499.4 -07.6619 26246.9
 03 11 2013  00 24  -21.0249 26012.5 -03499.4 -07.6618 26246.8
 03 11 2013  00 25  -21.0246 26012.4 -03499.4 -07.6618 26246.7
 03 11 2013  00 26  -21.0242 26012.3 -03499.4 -07.6619 26246.6
 03 11 2013  00 27  -21.0241 26012.1 -03499.4 -07.6619 26246.4
 03 11 2013  00 28  -21.0238 26011.9 -03499.4 -07.6620 26246.3
 03 11 2013  00 29  -21.0237 26011.8 -03499.4 -07.6620 26246.1
 03 11 2013  00 30  -21.0238 26011.7 -03499.4 -07.6621 26246.0
 03 11 2013  00 31  -21.0239 26011.5 -03499.4 -07.6622 26245.9
 03 11 2013  00 32  -21.0239 26011.3 -03499.4 -07.6623 26245.7
 03 11 2013  00 33  -21.0239 26011.1 -03499.4 -07.6623 26245.5
 03 11 2013  00 34  -21.0237 26011.0 -03499.4 -07.6624 26245.3
 03 11 2013  00 35  -21.0233 26010.9 -03499.5 -07.6625 26245.2
 03 11 2013  00 36  -21.0231 26010.9 -03499.6 -07.6627 26245.2
 03 11 2013  00 37  -21.0230 26010.8 -03499.6 -07.6629 26245.2
 03 11 2013  00 38  -21.0230 26010.7 -03499.7 -07.6631 26245.1
 03 11 2013  00 39  -21.0227 26010.6 -03499.8 -07.6632 26245.0
 03 11 2013  00 40  -21.0226 26010.6 -03499.8 -07.6634 26245.0
 03 11 2013  00 41  -21.0223 26010.5 -03499.9 -07.6635 26244.9
 03 11 2013  00 42  -21.0222 26010.5 -03500.0 -07.6638 26244.9
 03 11 2013  00 43  -21.0221 26010.5 -03500.2 -07.6641 26245.0
 03 11 2013  00 44  -21.0222 26010.6 -03500.4 -07.6645 26245.0
 03 11 2013  00 45  -21.0222 26010.5 -03500.5 -07.6647 26245.0
 03 11 2013  00 46  -21.0222 26010.6 -03500.6 -07.6650 26245.1
 03 11 2013  00 47  -21.0220 26010.7 -03500.8 -07.6654 26245.2
 03 11 2013  00 48  -21.0219 26010.7 -03500.9 -07.6655 26245.3
 03 11 2013  00 49  -21.0219 26010.8 -03501.0 -07.6658 26245.4
 03 11 2013  00 50  -21.0217 26011.0 -03501.2 -07.6662 26245.6
 03 11 2013  00 51  -21.0219 26010.9 -03501.3 -07.6663 26245.5
 03 11 2013  00 52  -21.0215 26010.8 -03501.3 -07.6664 26245.4
 03 11 2013  00 53  -21.0213 26010.9 -03501.3 -07.6665 26245.5
 03 11 2013  00 54  -21.0216 26010.8 -03501.4 -07.6667 26245.5
 03 11 2013  00 55  -21.0217 26010.9 -03501.5 -07.6669 26245.6
 03 11 2013  00 56  -21.0218 26010.9 -03501.6 -07.6671 26245.6
 03 11 2013  00 57  -21.0220 26010.9 -03501.7 -07.6672 26245.5
 03 11 2013  00 58  -21.0220 26010.9 -03501.7 -07.6673 26245.6
 03 11 2013  00 59  -21.0221 26011.3 -03502.0 -07.6677 26246.0
 03 11 2013  01 00  -21.0222 26011.7 -03502.3 -07.6682 26246.5
 03 11 2013  01 01  -21.0224 26012.1 -03502.4 -07.6686 26246.8
 03 11 2013  01 02  -21.0226 26012.1 -03502.6 -07.6688 26246.8
 03 11 2013  01 03  -21.0230 26012.3 -03502.7 -07.6690 26247.0
 03 11 2013  01 04  -21.0234 26012.4 -03502.7 -07.6691 26247.1
 03 11 2013  01 05  -21.0237 26012.4 -03502.8 -07.6693 26247.2
 03 11 2013  01 06  -21.0242 26012.6 -03502.9 -07.6693 26247.4
 03 11 2013  01 07  -21.0246 26012.6 -03502.9 -07.6694 26247.4
 03 11 2013  01 08  -21.0247 26012.6 -03502.9 -07.6694 26247.4
 03 11 2013  01 09  -21.0247 26012.5 -03502.8 -07.6693 26247.3
 03 11 2013  01 10  -21.0246 26012.4 -03502.8 -07.6691 26247.2
 03 11 2013  01 11  -21.0242 26012.4 -03502.8 -07.6691 26247.2
 03 11 2013  01 12  -21.0241 26012.2 -03502.7 -07.6690 26247.0
 03 11 2013  01 13  -21.0239 26012.4 -03502.8 -07.6692 26247.2
 03 11 2013  01 14  -21.0238 26012.5 -03502.8 -07.6693 26247.3
 03 11 2013  01 15  -21.0237 26012.5 -03502.9 -07.6694 26247.3
 03 11 2013  01 16  -21.0236 26012.6 -03503.0 -07.6695 26247.4
 03 11 2013  01 17  -21.0239 26012.5 -03503.0 -07.6696 26247.3
 03 11 2013  01 18  -21.0243 26012.5 -03502.9 -07.6695 26247.3
 03 11 2013  01 19  -21.0249 26012.4 -03503.0 -07.6696 26247.2
 03 11 2013  01 20  -21.0255 26012.4 -03503.0 -07.6696 26247.2
 03 11 2013  01 21  -21.0259 26012.4 -03503.0 -07.6696 26247.2
 03 11 2013  01 22  -21.0261 26012.3 -03502.9 -07.6695 26247.1
 03 11 2013  01 23  -21.0263 26012.2 -03502.9 -07.6694 26247.0
 03 11 2013  01 24  -21.0267 26012.1 -03502.8 -07.6693 26246.9
 03 11 2013  01 25  -21.0271 26012.1 -03502.7 -07.6692 26246.9
 03 11 2013  01 26  -21.0276 26012.0 -03502.7 -07.6690 26246.7
 03 11 2013  01 27  -21.0284 26011.8 -03502.6 -07.6690 26246.6
 03 11 2013  01 28  -21.0293 26011.6 -03502.5 -07.6688 26246.4
 03 11 2013  01 29  -21.0301 26011.5 -03502.4 -07.6687 26246.2
 03 11 2013  01 30  -21.0308 26011.4 -03502.4 -07.6686 26246.2
 03 11 2013  01 31  -21.0313 26011.4 -03502.3 -07.6684 26246.1
 03 11 2013  01 32  -21.0316 26011.4 -03502.3 -07.6684 26246.1
 03 11 2013  01 33  -21.0318 26011.4 -03502.2 -07.6683 26246.1
 03 11 2013  01 34  -21.0319 26011.4 -03502.2 -07.6683 26246.1
 03 11 2013  01 35  -21.0320 26011.6 -03502.3 -07.6684 26246.3
 03 11 2013  01 36  -21.0320 26011.8 -03502.4 -07.6686 26246.5
 03 11 2013  01 37  -21.0317 26012.2 -03502.6 -07.6689 26246.9
 03 11 2013  01 38  -21.0314 26012.4 -03502.7 -07.6689 26247.2
 03 11 2013  01 39  -21.0312 26012.5 -03502.7 -07.6690 26247.3
 03 11 2013  01 40  -21.0309 26012.9 -03502.9 -07.6692 26247.7
 03 11 2013  01 41  -21.0306 26013.2 -03503.0 -07.6695 26248.0
 03 11 2013  01 42  -21.0303 26013.6 -03503.2 -07.6698 26248.4
 03 11 2013  01 43  -21.0296 26014.0 -03503.4 -07.6700 26248.8
 03 11 2013  01 44  -21.0291 26014.1 -03503.4 -07.6701 26248.9
 03 11 2013  01 45  -21.0286 26014.1 -03503.4 -07.6700 26249.0
 03 11 2013  01 46  -21.0279 26014.3 -03503.4 -07.6700 26249.2
 03 11 2013  01 47  -21.0273 26014.6 -03503.6 -07.6703 26249.5
 03 11 2013  01 48  -21.0267 26014.8 -03503.6 -07.6704 26249.7
 03 11 2013  01 49  -21.0262 26014.9 -03503.7 -07.6704 26249.8
 03 11 2013  01 50  -21.0258 26015.0 -03503.7 -07.6704 26249.9
 03 11 2013  01 51  -21.0256 26015.1 -03503.7 -07.6704 26250.0
 03 11 2013  01 52  -21.0254 26015.3 -03503.8 -07.6705 26250.2
 03 11 2013  01 53  -21.0254 26015.6 -03503.9 -07.6707 26250.5
 03 11 2013  01 54  -21.0255 26015.8 -03504.0 -07.6708 26250.7
 03 11 2013  01 55  -21.0254 26016.0 -03504.1 -07.6710 26250.9
 03 11 2013  01 56  -21.0254 26016.2 -03504.1 -07.6710 26251.1
 03 11 2013  01 57  -21.0256 26016.5 -03504.3 -07.6712 26251.5
 03 11 2013  01 58  -21.0258 26016.8 -03504.4 -07.6714 26251.8
 03 11 2013  01 59  -21.0258 26017.1 -03504.5 -07.6714 26252.1
 03 11 2013  02 00  -21.0259 26017.4 -03504.5 -07.6715 26252.4
 03 11 2013  02 01  -21.0260 26017.8 -03504.6 -07.6717 26252.8
 03 11 2013  02 02  -21.0263 26017.9 -03504.7 -07.6717 26252.9
 03 11 2013  02 03  -21.0261 26018.3 -03504.7 -07.6717 26253.3
 03 11 2013  02 04  -21.0261 26018.4 -03504.7 -07.6715 26253.4
 03 11 2013  02 05  -21.0260 26018.7 -03504.7 -07.6715 26253.7
 03 11 2013  02 06  -21.0259 26018.8 -03504.7 -07.6714 26253.8
 03 11 2013  02 07  -21.0257 26018.9 -03504.6 -07.6711 26253.9
 03 11 2013  02 08  -21.0255 26018.9 -03504.5 -07.6710 26253.9
 03 11 2013  02 09  -21.0253 26018.9 -03504.4 -07.6707 26253.8
 03 11 2013  02 10  -21.0252 26018.8 -03504.2 -07.6704 26253.7
 03 11 2013  02 11  -21.0251 26018.6 -03504.0 -07.6701 26253.5
 03 11 2013  02 12  -21.0251 26018.7 -03503.9 -07.6699 26253.6
 03 11 2013  02 13  -21.0256 26018.6 -03503.9 -07.6698 26253.4
 03 11 2013  02 14  -21.0261 26018.5 -03503.8 -07.6696 26253.3
 03 11 2013  02 15  -21.0267 26018.5 -03503.7 -07.6695 26253.3
 03 11 2013  02 16  -21.0272 26018.4 -03503.6 -07.6693 26253.2
 03 11 2013  02 17  -21.0273 26018.3 -03503.5 -07.6689 26253.1
 03 11 2013  02 18  -21.0273 26018.0 -03503.2 -07.6686 26252.8
 03 11 2013  02 19  -21.0271 26017.9 -03503.1 -07.6682 26252.7
 03 11 2013  02 20  -21.0270 26017.8 -03503.0 -07.6680 26252.5
 03 11 2013  02 21  -21.0270 26017.5 -03502.8 -07.6678 26252.3
 03 11 2013  02 22  -21.0269 26017.3 -03502.7 -07.6676 26252.1
 03 11 2013  02 23  -21.0267 26017.2 -03502.6 -07.6674 26251.9
 03 11 2013  02 24  -21.0264 26017.0 -03502.4 -07.6671 26251.6
 03 11 2013  02 25  -21.0256 26016.6 -03502.3 -07.6669 26251.3
 03 11 2013  02 26  -21.0248 26016.4 -03502.1 -07.6666 26251.0
 03 11 2013  02 27  -21.0241 26016.1 -03502.0 -07.6664 26250.7
 03 11 2013  02 28  -21.0233 26015.8 -03501.9 -07.6664 26250.5
 03 11 2013  02 29  -21.0226 26015.7 -03501.9 -07.6664 26250.3
 03 11 2013  02 30  -21.0218 26015.5 -03501.9 -07.6663 26250.1
 03 11 2013  02 31  -21.0212 26015.4 -03501.9 -07.6665 26250.1
 03 11 2013  02 32  -21.0209 26015.4 -03502.1 -07.6668 26250.1
 03 11 2013  02 33  -21.0211 26015.6 -03502.2 -07.6671 26250.2
 03 11 2013  02 34  -21.0211 26015.6 -03502.4 -07.6675 26250.3
 03 11 2013  02 35  -21.0211 26015.7 -03502.5 -07.6677 26250.4
 03 11 2013  02 36  -21.0212 26015.6 -03502.6 -07.6679 26250.3
 03 11 2013  02 37  -21.0215 26015.6 -03502.6 -07.6679 26250.4
 03 11 2013  02 38  -21.0217 26015.6 -03502.7 -07.6681 26250.4
 03 11 2013  02 39  -21.0218 26015.7 -03502.8 -07.6682 26250.5
 03 11 2013  02 40  -21.0220 26015.7 -03502.8 -07.6683 26250.4
 03 11 2013  02 41  -21.0221 26015.8 -03502.9 -07.6685 26250.5
 03 11 2013  02 42  -21.0224 26015.9 -03503.0 -07.6686 26250.7
 03 11 2013  02 43  -21.0226 26015.9 -03503.1 -07.6688 26250.7
 03 11 2013  02 44  -21.0228 26016.0 -03503.1 -07.6689 26250.8
 03 11 2013  02 45  -21.0229 26016.0 -03503.1 -07.6689 26250.8
 03 11 2013  02 46  -21.0228 26015.9 -03503.1 -07.6688 26250.7
 03 11 2013  02 47  -21.0228 26015.8 -03503.1 -07.6688 26250.6
 03 11 2013  02 48  -21.0227 26015.7 -03503.1 -07.6689 26250.5
 03 11 2013  02 49  -21.0226 26015.6 -03503.0 -07.6688 26250.4
 03 11 2013  02 50  -21.0225 26015.4 -03503.0 -07.6688 26250.2
 03 11 2013  02 51  -21.0224 26015.2 -03503.0 -07.6688 26250.0
 03 11 2013  02 52  -21.0222 26015.0 -03502.9 -07.6687 26249.8
 03 11 2013  02 53  -21.0221 26014.9 -03502.9 -07.6687 26249.7
 03 11 2013  02 54  -21.0220 26014.8 -03502.9 -07.6687 26249.6
 03 11 2013  02 55  -21.0220 26014.6 -03502.9 -07.6688 26249.4
 03 11 2013  02 56  -21.0219 26014.5 -03502.9 -07.6689 26249.3
 03 11 2013  02 57  -21.0218 26014.5 -03503.0 -07.6690 26249.3
 03 11 2013  02 58  -21.0218 26014.5 -03503.0 -07.6691 26249.3
 03 11 2013  02 59  -21.0220 26014.6 -03503.2 -07.6694 26249.4
 03 11 2013  03 00  -21.0224 26014.8 -03503.3 -07.6696 26249.7
 03 11 2013  03 01  -21.0228 26015.0 -03503.5 -07.6699 26249.9
 03 11 2013  03 02  -21.0232 26015.1 -03503.6 -07.6702 26250.0
 03 11 2013  03 03  -21.0234 26015.4 -03503.7 -07.6704 26250.3
 03 11 2013  03 04  -21.0236 26015.6 -03503.9 -07.6706 26250.5
 03 11 2013  03 05  -21.0237 26015.8 -03504.0 -07.6707 26250.7
 03 11 2013  03 06  -21.0239 26016.0 -03504.0 -07.6708 26250.9
 03 11 2013  03 07  -21.0239 26016.0 -03504.0 -07.6708 26250.9
 03 11 2013  03 08  -21.0237 26016.0 -03503.9 -07.6707 26250.9
 03 11 2013  03 09  -21.0237 26015.9 -03503.9 -07.6706 26250.8
 03 11 2013  03 10  -21.0234 26015.7 -03503.8 -07.6704 26250.6
 03 11 2013  03 11  -21.0232 26015.5 -03503.6 -07.6702 26250.4
 03 11 2013  03 12  -21.0231 26015.4 -03503.6 -07.6700 26250.3
 03 11 2013  03 13  -21.0230 26015.4 -03503.6 -07.6700 26250.2
 03 11 2013  03 14  -21.0231 26015.4 -03503.6 -07.6701 26250.3
 03 11 2013  03 15  -21.0235 26015.4 -03503.6 -07.6700 26250.3
 03 11 2013  03 16  -21.0239 26015.4 -03503.6 -07.6701 26250.2
 03 11 2013  03 17  -21.0243 26015.4 -03503.6 -07.6702 26250.3
 03 11 2013  03 18  -21.0246 26015.5 -03503.6 -07.6701 26250.4
 03 11 2013  03 19  -21.0249 26015.5 -03503.6 -07.6701 26250.4
 03 11 2013  03 20  -21.0252 26015.6 -03503.7 -07.6701 26250.5
 03 11 2013  03 21  -21.0254 26015.7 -03503.6 -07.6701 26250.5
 03 11 2013  03 22  -21.0256 26015.7 -03503.7 -07.6701 26250.6
 03 11 2013  03 23  -21.0258 26015.8 -03503.7 -07.6701 26250.7
 03 11 2013  03 24  -21.0260 26016.0 -03503.7 -07.6702 26250.8
 03 11 2013  03 25  -21.0263 26016.1 -03503.7 -07.6702 26250.9
 03 11 2013  03 26  -21.0264 26016.2 -03503.7 -07.6701 26251.0
 03 11 2013  03 27  -21.0267 26016.2 -03503.7 -07.6701 26251.1
 03 11 2013  03 28  -21.0268 26016.3 -03503.7 -07.6701 26251.2
 03 11 2013  03 29  -21.0269 26016.3 -03503.7 -07.6700 26251.2
 03 11 2013  03 30  -21.0270 26016.3 -03503.7 -07.6700 26251.2
 03 11 2013  03 31  -21.0269 26016.3 -03503.6 -07.6699 26251.2
 03 11 2013  03 32  -21.0268 26016.4 -03503.6 -07.6698 26251.2
 03 11 2013  03 33  -21.0267 26016.4 -03503.6 -07.6698 26251.3
 03 11 2013  03 34  -21.0266 26016.5 -03503.6 -07.6697 26251.3
 03 11 2013  03 35  -21.0265 26016.4 -03503.6 -07.6697 26251.3
 03 11 2013  03 36  -21.0263 26016.4 -03503.5 -07.6696 26251.2
 03 11 2013  03 37  -21.0260 26016.4 -03503.5 -07.6695 26251.2
 03 11 2013  03 38  -21.0258 26016.4 -03503.5 -07.6696 26251.2
 03 11 2013  03 39  -21.0257 26016.5 -03503.6 -07.6697 26251.3
 03 11 2013  03 40  -21.0258 26016.5 -03503.6 -07.6698 26251.4
 03 11 2013  03 41  -21.0257 26016.5 -03503.6 -07.6697 26251.3
 03 11 2013  03 42  -21.0256 26016.4 -03503.5 -07.6697 26251.2
 03 11 2013  03 43  -21.0253 26016.3 -03503.5 -07.6696 26251.1
 03 11 2013  03 44  -21.0249 26016.2 -03503.4 -07.6695 26251.0
 03 11 2013  03 45  -21.0246 26016.1 -03503.4 -07.6695 26251.0
 03 11 2013  03 46  -21.0246 26016.1 -03503.4 -07.6695 26250.9
 03 11 2013  03 47  -21.0246 26016.1 -03503.5 -07.6696 26251.0
 03 11 2013  03 48  -21.0247 26016.1 -03503.5 -07.6697 26251.0
 03 11 2013  03 49  -21.0246 26016.0 -03503.5 -07.6697 26250.9
 03 11 2013  03 50  -21.0245 26016.0 -03503.5 -07.6696 26250.8
 03 11 2013  03 51  -21.0244 26015.9 -03503.4 -07.6696 26250.7
 03 11 2013  03 52  -21.0244 26015.8 -03503.4 -07.6696 26250.6
 03 11 2013  03 53  -21.0243 26015.8 -03503.4 -07.6695 26250.6
 03 11 2013  03 54  -21.0241 26015.7 -03503.4 -07.6695 26250.5
 03 11 2013  03 55  -21.0240 26015.5 -03503.4 -07.6695 26250.4
 03 11 2013  03 56  -21.0237 26015.4 -03503.3 -07.6695 26250.3
 03 11 2013  03 57  -21.0234 26015.4 -03503.3 -07.6695 26250.2
 03 11 2013  03 58  -21.0233 26015.3 -03503.4 -07.6697 26250.2
 03 11 2013  03 59  -21.0232 26015.3 -03503.4 -07.6697 26250.1
 03 11 2013  04 00  -21.0232 26015.3 -03503.5 -07.6698 26250.2
 03 11 2013  04 01  -21.0232 26015.5 -03503.6 -07.6701 26250.3
 03 11 2013  04 02  -21.0232 26015.6 -03503.7 -07.6703 26250.5
 03 11 2013  04 03  -21.0232 26015.7 -03503.8 -07.6705 26250.6
 03 11 2013  04 04  -21.0235 26015.8 -03503.9 -07.6706 26250.7
 03 11 2013  04 05  -21.0238 26015.8 -03504.0 -07.6707 26250.7
 03 11 2013  04 06  -21.0240 26015.8 -03504.0 -07.6708 26250.7
 03 11 2013  04 07  -21.0243 26015.7 -03504.0 -07.6708 26250.6
 03 11 2013  04 08  -21.0243 26015.6 -03503.9 -07.6708 26250.5
 03 11 2013  04 09  -21.0244 26015.6 -03503.9 -07.6707 26250.5
 03 11 2013  04 10  -21.0248 26015.5 -03503.9 -07.6707 26250.4
 03 11 2013  04 11  -21.0252 26015.5 -03503.9 -07.6707 26250.5
 03 11 2013  04 12  -21.0259 26015.6 -03504.0 -07.6709 26250.5
 03 11 2013  04 13  -21.0264 26015.6 -03504.0 -07.6709 26250.5
 03 11 2013  04 14  -21.0268 26015.5 -03504.0 -07.6708 26250.5
 03 11 2013  04 15  -21.0272 26015.6 -03504.0 -07.6708 26250.5
 03 11 2013  04 16  -21.0274 26015.8 -03504.0 -07.6708 26250.7
 03 11 2013  04 17  -21.0275 26016.0 -03504.1 -07.6710 26250.9
 03 11 2013  04 18  -21.0276 26016.2 -03504.2 -07.6711 26251.2
 03 11 2013  04 19  -21.0278 26016.6 -03504.3 -07.6713 26251.5
 03 11 2013  04 20  -21.0281 26016.7 -03504.4 -07.6715 26251.6
 03 11 2013  04 21  -21.0284 26016.9 -03504.5 -07.6715 26251.9
 03 11 2013  04 22  -21.0287 26016.9 -03504.5 -07.6716 26251.9
 03 11 2013  04 23  -21.0289 26017.0 -03504.4 -07.6715 26251.9
 03 11 2013  04 24  -21.0290 26017.0 -03504.4 -07.6714 26252.0
 03 11 2013  04 25  -21.0292 26017.1 -03504.4 -07.6714 26252.0
 03 11 2013  04 26  -21.0294 26017.1 -03504.4 -07.6714 26252.1
 03 11 2013  04 27  -21.0294 26017.1 -03504.4 -07.6713 26252.1
 03 11 2013  04 28  -21.0294 26017.3 -03504.4 -07.6714 26252.2
 03 11 2013  04 29  -21.0294 26017.3 -03504.5 -07.6714 26252.3
 03 11 2013  04 30  -21.0294 26017.5 -03504.5 -07.6714 26252.5
 03 11 2013  04 31  -21.0293 26017.6 -03504.5 -07.6714 26252.6
 03 11 2013  04 32  -21.0293 26017.7 -03504.6 -07.6715 26252.7
 03 11 2013  04 33  -21.0293 26017.9 -03504.6 -07.6715 26252.8
 03 11 2013  04 34  -21.0294 26018.0 -03504.7 -07.6717 26253.0
 03 11 2013  04 35  -21.0296 26018.2 -03504.7 -07.6718 26253.2
 03 11 2013  04 36  -21.0296 26018.3 -03504.8 -07.6718 26253.3
 03 11 2013  04 37  -21.0298 26018.4 -03504.8 -07.6718 26253.4
 03 11 2013  04 38  -21.0298 26018.5 -03504.8 -07.6719 26253.5
 03 11 2013  04 39  -21.0300 26018.6 -03504.9 -07.6719 26253.6
 03 11 2013  04 40  -21.0302 26018.5 -03504.8 -07.6718 26253.5
 03 11 2013  04 41  -21.0302 26018.4 -03504.7 -07.6716 26253.4
 03 11 2013  04 42  -21.0302 26018.2 -03504.6 -07.6714 26253.2
 03 11 2013  04 43  -21.0299 26018.2 -03504.5 -07.6713 26253.2
 03 11 2013  04 44  -21.0300 26018.1 -03504.5 -07.6712 26253.1
 03 11 2013  04 45  -21.0301 26018.1 -03504.5 -07.6712 26253.1
 03 11 2013  04 46  -21.0302 26018.2 -03504.5 -07.6713 26253.1
 03 11 2013  04 47  -21.0302 26018.2 -03504.5 -07.6712 26253.1
 03 11 2013  04 48  -21.0304 26018.3 -03504.5 -07.6713 26253.2
 03 11 2013  04 49  -21.0307 26018.2 -03504.5 -07.6713 26253.2
 03 11 2013  04 50  -21.0309 26018.2 -03504.5 -07.6712 26253.2
 03 11 2013  04 51  -21.0313 26018.3 -03504.5 -07.6713 26253.2
 03 11 2013  04 52  -21.0317 26018.3 -03504.6 -07.6713 26253.3
 03 11 2013  04 53  -21.0320 26018.4 -03504.6 -07.6714 26253.3
 03 11 2013  04 54  -21.0321 26018.4 -03504.6 -07.6714 26253.4
 03 11 2013  04 55  -21.0323 26018.5 -03504.7 -07.6715 26253.5
 03 11 2013  04 56  -21.0324 26018.6 -03504.7 -07.6716 26253.6
 03 11 2013  04 57  -21.0325 26018.8 -03504.8 -07.6717 26253.8
 03 11 2013  04 58  -21.0326 26018.9 -03504.8 -07.6717 26253.9
 03 11 2013  04 59  -21.0326 26019.0 -03504.8 -07.6717 26254.0
 03 11 2013  05 00  -21.0325 26019.0 -03504.8 -07.6717 26254.0
 03 11 2013  05 01  -21.0325 26019.1 -03504.9 -07.6717 26254.1
 03 11 2013  05 02  -21.0324 26019.1 -03504.9 -07.6718 26254.1
 03 11 2013  05 03  -21.0323 26019.1 -03504.9 -07.6718 26254.1
 03 11 2013  05 04  -21.0324 26019.1 -03504.9 -07.6718 26254.1
 03 11 2013  05 05  -21.0322 26019.0 -03504.8 -07.6717 26254.0
 03 11 2013  05 06  -21.0321 26018.9 -03504.8 -07.6717 26253.9
 03 11 2013  05 07  -21.0321 26018.9 -03504.8 -07.6718 26253.9
 03 11 2013  05 08  -21.0320 26018.9 -03504.8 -07.6717 26253.9
 03 11 2013  05 09  -21.0320 26018.8 -03504.8 -07.6717 26253.8
 03 11 2013  05 10  -21.0317 26018.7 -03504.8 -07.6716 26253.7
 03 11 2013  05 11  -21.0315 26018.6 -03504.7 -07.6716 26253.6
 03 11 2013  05 12  -21.0310 26018.5 -03504.6 -07.6714 26253.5
 03 11 2013  05 13  -21.0306 26018.4 -03504.7 -07.6715 26253.4
 03 11 2013  05 14  -21.0304 26018.4 -03504.7 -07.6716 26253.4
 03 11 2013  05 15  -21.0304 26018.4 -03504.7 -07.6717 26253.4
 03 11 2013  05 16  -21.0305 26018.4 -03504.8 -07.6718 26253.4
 03 11 2013  05 17  -21.0306 26018.4 -03504.8 -07.6719 26253.4
 03 11 2013  05 18  -21.0306 26018.4 -03504.8 -07.6719 26253.4
 03 11 2013  05 19  -21.0305 26018.3 -03504.8 -07.6719 26253.3
 03 11 2013  05 20  -21.0305 26018.3 -03504.9 -07.6720 26253.3
 03 11 2013  05 21  -21.0305 26018.2 -03504.8 -07.6720 26253.2
 03 11 2013  05 22  -21.0305 26018.3 -03504.9 -07.6720 26253.3
 03 11 2013  05 23  -21.0303 26018.4 -03504.9 -07.6721 26253.4
 03 11 2013  05 24  -21.0301 26018.6 -03505.0 -07.6722 26253.6
 03 11 2013  05 25  -21.0301 26018.6 -03505.1 -07.6723 26253.7
 03 11 2013  05 26  -21.0300 26018.5 -03505.0 -07.6722 26253.6
 03 11 2013  05 27  -21.0300 26018.5 -03505.0 -07.6722 26253.5
 03 11 2013  05 28  -21.0300 26018.5 -03505.0 -07.6723 26253.5
 03 11 2013  05 29  -21.0300 26018.6 -03505.1 -07.6724 26253.7
 03 11 2013  05 30  -21.0300 26018.7 -03505.2 -07.6725 26253.8
 03 11 2013  05 31  -21.0302 26019.0 -03505.3 -07.6727 26254.0
 03 11 2013  05 32  -21.0307 26019.2 -03505.4 -07.6729 26254.2
 03 11 2013  05 33  -21.0311 26019.2 -03505.5 -07.6730 26254.3
 03 11 2013  05 34  -21.0311 26019.3 -03505.4 -07.6729 26254.3
 03 11 2013  05 35  -21.0310 26019.3 -03505.4 -07.6729 26254.4
 03 11 2013  05 36  -21.0308 26019.1 -03505.3 -07.6726 26254.2
 03 11 2013  05 37  -21.0306 26019.1 -03505.2 -07.6725 26254.2
 03 11 2013  05 38  -21.0307 26019.2 -03505.2 -07.6725 26254.3
 03 11 2013  05 39  -21.0311 26019.0 -03505.1 -07.6723 26254.0
 03 11 2013  05 40  -21.0309 26019.1 -03505.1 -07.6723 26254.1
 03 11 2013  05 41  -21.0309 26019.0 -03505.0 -07.6721 26254.0
 03 11 2013  05 42  -21.0311 26018.6 -03504.8 -07.6718 26253.6
 03 11 2013  05 43  -21.0313 26018.4 -03504.7 -07.6716 26253.4
 03 11 2013  05 44  -21.0314 26018.6 -03504.8 -07.6717 26253.6
 03 11 2013  05 45  -21.0318 26018.8 -03504.9 -07.6719 26253.8
 03 11 2013  05 46  -21.0319 26019.5 -03505.1 -07.6722 26254.5
 03 11 2013  05 47  -21.0321 26019.7 -03505.3 -07.6724 26254.7
 03 11 2013  05 48  -21.0325 26019.7 -03505.3 -07.6724 26254.7
 03 11 2013  05 49  -21.0324 26019.9 -03505.3 -07.6724 26254.9
 03 11 2013  05 50  -21.0321 26019.7 -03505.1 -07.6721 26254.7
 03 11 2013  05 51  -21.0317 26019.6 -03505.0 -07.6718 26254.6
 03 11 2013  05 52  -21.0312 26019.7 -03504.9 -07.6717 26254.7
 03 11 2013  05 53  -21.0311 26019.7 -03505.0 -07.6718 26254.7
 03 11 2013  05 54  -21.0310 26019.8 -03505.0 -07.6718 26254.8
 03 11 2013  05 55  -21.0308 26019.7 -03505.0 -07.6718 26254.8
 03 11 2013  05 56  -21.0306 26019.9 -03505.0 -07.6718 26254.9
 03 11 2013  05 57  -21.0303 26020.0 -03505.1 -07.6719 26255.0
 03 11 2013  05 58  -21.0299 26020.0 -03505.0 -07.6718 26255.0
 03 11 2013  05 59  -21.0292 26019.8 -03504.9 -07.6716 26254.8
 03 11 2013  06 00  -21.0283 26019.7 -03504.8 -07.6715 26254.7
 03 11 2013  06 01  -21.0272 26019.6 -03504.8 -07.6714 26254.6
 03 11 2013  06 02  -21.0260 26019.8 -03504.8 -07.6715 26254.8
 03 11 2013  06 03  -21.0251 26020.1 -03505.0 -07.6718 26255.1
 03 11 2013  06 04  -21.0242 26020.3 -03505.2 -07.6720 26255.3
 03 11 2013  06 05  -21.0238 26020.5 -03505.3 -07.6724 26255.5
 03 11 2013  06 06  -21.0230 26020.3 -03505.3 -07.6724 26255.4
 03 11 2013  06 07  -21.0228 26020.2 -03505.3 -07.6724 26255.2
 03 11 2013  06 08  -21.0228 26020.3 -03505.4 -07.6726 26255.4
 03 11 2013  06 09  -21.0232 26020.3 -03505.5 -07.6728 26255.4
 03 11 2013  06 10  -21.0234 26020.4 -03505.6 -07.6728 26255.5
 03 11 2013  06 11  -21.0236 26020.7 -03505.7 -07.6731 26255.8
 03 11 2013  06 12  -21.0237 26020.8 -03505.8 -07.6733 26255.9
 03 11 2013  06 13  -21.0244 26021.0 -03505.9 -07.6734 26256.1
 03 11 2013  06 14  -21.0248 26021.1 -03505.9 -07.6734 26256.2
 03 11 2013  06 15  -21.0252 26021.4 -03506.0 -07.6736 26256.6
 03 11 2013  06 16  -21.0255 26021.7 -03506.1 -07.6736 26256.8
 03 11 2013  06 17  -21.0258 26021.7 -03506.0 -07.6735 26256.8
 03 11 2013  06 18  -21.0257 26021.7 -03505.9 -07.6733 26256.8
 03 11 2013  06 19  -21.0256 26021.9 -03506.0 -07.6733 26257.1
 03 11 2013  06 20  -21.0254 26022.0 -03506.0 -07.6733 26257.1
 03 11 2013  06 21  -21.0250 26022.1 -03505.9 -07.6731 26257.2
 03 11 2013  06 22  -21.0245 26022.2 -03505.9 -07.6730 26257.3
 03 11 2013  06 23  -21.0242 26022.3 -03505.9 -07.6730 26257.4
 03 11 2013  06 24  -21.0239 26022.4 -03505.9 -07.6730 26257.5
 03 11 2013  06 25  -21.0237 26022.5 -03506.0 -07.6731 26257.6
 03 11 2013  06 26  -21.0235 26022.7 -03506.0 -07.6732 26257.8
 03 11 2013  06 27  -21.0236 26022.8 -03506.0 -07.6732 26257.9
 03 11 2013  06 28  -21.0235 26022.9 -03506.1 -07.6732 26258.0
 03 11 2013  06 29  -21.0234 26023.0 -03506.0 -07.6732 26258.1
 03 11 2013  06 30  -21.0233 26023.1 -03506.0 -07.6731 26258.2
 03 11 2013  06 31  -21.0233 26023.2 -03506.1 -07.6732 26258.3
 03 11 2013  06 32  -21.0234 26023.3 -03506.1 -07.6731 26258.5
 03 11 2013  06 33  -21.0235 26023.4 -03506.1 -07.6731 26258.5
 03 11 2013  06 34  -21.0238 26023.4 -03506.1 -07.6731 26258.5
 03 11 2013  06 35  -21.0240 26023.4 -03506.1 -07.6731 26258.5
 03 11 2013  06 36  -21.0242 26023.4 -03506.0 -07.6729 26258.6
 03 11 2013  06 37  -21.0245 26023.5 -03506.0 -07.6729 26258.6
 03 11 2013  06 38  -21.0249 26023.5 -03506.0 -07.6729 26258.6
 03 11 2013  06 39  -21.0252 26023.5 -03505.9 -07.6728 26258.6
 03 11 2013  06 40  -21.0258 26023.5 -03505.9 -07.6727 26258.6
 03 11 2013  06 41  -21.0264 26023.5 -03505.9 -07.6726 26258.6
 03 11 2013  06 42  -21.0267 26023.5 -03505.8 -07.6725 26258.6
 03 11 2013  06 43  -21.0269 26023.6 -03505.8 -07.6724 26258.7
 03 11 2013  06 44  -21.0271 26023.6 -03505.7 -07.6722 26258.7
 03 11 2013  06 45  -21.0275 26023.6 -03505.7 -07.6722 26258.7
 03 11 2013  06 46  -21.0278 26023.6 -03505.6 -07.6721 26258.7
 03 11 2013  06 47  -21.0281 26023.5 -03505.5 -07.6719 26258.6
 03 11 2013  06 48  -21.0282 26023.4 -03505.5 -07.6718 26258.5
 03 11 2013  06 49  -21.0283 26023.4 -03505.4 -07.6716 26258.4
 03 11 2013  06 50  -21.0286 26023.3 -03505.3 -07.6715 26258.3
 03 11 2013  06 51  -21.0287 26023.1 -03505.2 -07.6714 26258.1
 03 11 2013  06 52  -21.0288 26022.8 -03505.1 -07.6711 26257.8
 03 11 2013  06 53  -21.0287 26022.5 -03504.9 -07.6708 26257.5
 03 11 2013  06 54  -21.0286 26022.3 -03504.8 -07.6706 26257.2
 03 11 2013  06 55  -21.0285 26022.1 -03504.7 -07.6706 26257.0
 03 11 2013  06 56  -21.0281 26021.9 -03504.6 -07.6704 26256.8
 03 11 2013  06 57  -21.0276 26021.7 -03504.5 -07.6702 26256.7
 03 11 2013  06 58  -21.0271 26021.6 -03504.5 -07.6702 26256.6
 03 11 2013  06 59  -21.0267 26021.6 -03504.5 -07.6703 26256.6
 03 11 2013  07 00  -21.0261 26021.6 -03504.6 -07.6704 26256.5
 03 11 2013  07 01  -21.0254 26021.7 -03504.6 -07.6705 26256.6
 03 11 2013  07 02  -21.0251 26021.6 -03504.7 -07.6707 26256.6
 03 11 2013  07 03  -21.0247 26021.6 -03504.8 -07.6708 26256.6
 03 11 2013  07 04  -21.0243 26021.6 -03504.8 -07.6709 26256.5
 03 11 2013  07 05  -21.0242 26021.6 -03504.9 -07.6710 26256.6
 03 11 2013  07 06  -21.0243 26021.5 -03504.9 -07.6711 26256.5
 03 11 2013  07 07  -21.0244 26021.5 -03504.9 -07.6711 26256.5
 03 11 2013  07 08  -21.0245 26021.4 -03504.9 -07.6711 26256.3
 03 11 2013  07 09  -21.0243 26021.2 -03504.8 -07.6710 26256.2
 03 11 2013  07 10  -21.0240 26021.2 -03504.8 -07.6710 26256.1
 03 11 2013  07 11  -21.0237 26021.1 -03504.8 -07.6709 26256.1
 03 11 2013  07 12  -21.0235 26021.1 -03504.8 -07.6710 26256.0
 03 11 2013  07 13  -21.0232 26021.1 -03504.8 -07.6710 26256.0
 03 11 2013  07 14  -21.0231 26021.0 -03504.8 -07.6710 26255.9
 03 11 2013  07 15  -21.0229 26021.0 -03504.8 -07.6712 26256.0
 03 11 2013  07 16  -21.0228 26021.0 -03504.9 -07.6713 26256.0
 03 11 2013  07 17  -21.0227 26021.0 -03505.0 -07.6714 26256.0
 03 11 2013  07 18  -21.0228 26021.0 -03505.0 -07.6715 26256.0
 03 11 2013  07 19  -21.0230 26021.0 -03505.1 -07.6716 26256.0
 03 11 2013  07 20  -21.0231 26021.0 -03505.1 -07.6717 26256.0
 03 11 2013  07 21  -21.0231 26021.0 -03505.1 -07.6716 26256.0
 03 11 2013  07 22  -21.0232 26020.8 -03505.0 -07.6716 26255.8
 03 11 2013  07 23  -21.0232 26020.7 -03505.0 -07.6715 26255.7
 03 11 2013  07 24  -21.0232 26020.6 -03504.9 -07.6714 26255.6
 03 11 2013  07 25  -21.0231 26020.5 -03504.9 -07.6714 26255.5
 03 11 2013  07 26  -21.0230 26020.5 -03504.9 -07.6714 26255.5
 03 11 2013  07 27  -21.0229 26020.4 -03504.9 -07.6715 26255.4
 03 11 2013  07 28  -21.0228 26020.2 -03504.9 -07.6714 26255.2
 03 11 2013  07 29  -21.0227 26020.2 -03504.9 -07.6715 26255.2
 03 11 2013  07 30  -21.0228 26020.2 -03504.9 -07.6716 26255.2
 03 11 2013  07 31  -21.0229 26020.2 -03505.0 -07.6717 26255.2
 03 11 2013  07 32  -21.0230 26020.2 -03505.0 -07.6718 26255.2
 03 11 2013  07 33  -21.0233 26020.2 -03505.1 -07.6718 26255.2
 03 11 2013  07 34  -21.0236 26020.3 -03505.1 -07.6719 26255.3
 03 11 2013  07 35  -21.0237 26020.2 -03505.1 -07.6720 26255.2
 03 11 2013  07 36  -21.0239 26020.2 -03505.1 -07.6720 26255.2
 03 11 2013  07 37  -21.0242 26020.2 -03505.2 -07.6721 26255.2
 03 11 2013  07 38  -21.0246 26020.2 -03505.2 -07.6722 26255.2
 03 11 2013  07 39  -21.0249 26020.2 -03505.2 -07.6723 26255.3
 03 11 2013  07 40  -21.0252 26020.1 -03505.2 -07.6722 26255.1
 03 11 2013  07 41  -21.0253 26020.1 -03505.2 -07.6723 26255.1
 03 11 2013  07 42  -21.0254 26020.0 -03505.2 -07.6723 26255.1
 03 11 2013  07 43  -21.0256 26020.0 -03505.2 -07.6722 26255.0
 03 11 2013  07 44  -21.0257 26019.9 -03505.2 -07.6722 26254.9
 03 11 2013  07 45  -21.0257 26019.7 -03505.1 -07.6721 26254.7
 03 11 2013  07 46  -21.0256 26019.6 -03505.1 -07.6722 26254.6
 03 11 2013  07 47  -21.0257 26019.5 -03505.1 -07.6722 26254.5
 03 11 2013  07 48  -21.0259 26019.3 -03505.1 -07.6722 26254.4
 03 11 2013  07 49  -21.0260 26019.3 -03505.1 -07.6723 26254.3
 03 11 2013  07 50  -21.0258 26019.2 -03505.1 -07.6723 26254.3
 03 11 2013  07 51  -21.0257 26019.1 -03505.1 -07.6723 26254.1
 03 11 2013  07 52  -21.0254 26019.1 -03505.2 -07.6724 26254.2
 03 11 2013  07 53  -21.0252 26019.3 -03505.3 -07.6726 26254.3
 03 11 2013  07 54  -21.0251 26019.3 -03505.4 -07.6728 26254.4
 03 11 2013  07 55  -21.0250 26019.3 -03505.5 -07.6730 26254.4
 03 11 2013  07 56  -21.0250 26019.4 -03505.6 -07.6731 26254.5
 03 11 2013  07 57  -21.0249 26019.5 -03505.6 -07.6733 26254.6
 03 11 2013  07 58  -21.0250 26019.5 -03505.7 -07.6734 26254.6
 03 11 2013  07 59  -21.0249 26019.5 -03505.7 -07.6734 26254.6
 03 11 2013  08 00  -21.0248 26019.5 -03505.7 -07.6735 26254.6
 03 11 2013  08 01  -21.0251 26019.4 -03505.8 -07.6736 26254.5
 03 11 2013  08 02  -21.0253 26019.4 -03505.8 -07.6737 26254.5
 03 11 2013  08 03  -21.0255 26019.4 -03505.8 -07.6738 26254.5
 03 11 2013  08 04  -21.0256 26019.2 -03505.8 -07.6738 26254.4
 03 11 2013  08 05  -21.0256 26019.2 -03505.8 -07.6738 26254.3
 03 11 2013  08 06  -21.0257 26019.2 -03505.9 -07.6739 26254.3
 03 11 2013  08 07  -21.0257 26019.1 -03505.9 -07.6739 26254.3
 03 11 2013  08 08  -21.0257 26019.0 -03505.8 -07.6738 26254.1
 03 11 2013  08 09  -21.0256 26019.1 -03505.8 -07.6739 26254.2
 03 11 2013  08 10  -21.0256 26019.1 -03505.8 -07.6739 26254.2
 03 11 2013  08 11  -21.0258 26019.1 -03505.9 -07.6740 26254.3
 03 11 2013  08 12  -21.0260 26019.2 -03506.0 -07.6741 26254.4
 03 11 2013  08 13  -21.0265 26019.2 -03506.0 -07.6742 26254.4
 03 11 2013  08 14  -21.0267 26019.3 -03506.1 -07.6743 26254.5
 03 11 2013  08 15  -21.0271 26019.3 -03506.1 -07.6743 26254.5
 03 11 2013  08 16  -21.0273 26019.3 -03506.0 -07.6741 26254.4
 03 11 2013  08 17  -21.0273 26019.3 -03505.9 -07.6740 26254.4
 03 11 2013  08 18  -21.0273 26019.2 -03505.9 -07.6739 26254.3
 03 11 2013  08 19  -21.0272 26019.2 -03505.8 -07.6737 26254.3
 03 11 2013  08 20  -21.0272 26019.1 -03505.7 -07.6736 26254.2
 03 11 2013  08 21  -21.0273 26019.1 -03505.7 -07.6736 26254.2
 03 11 2013  08 22  -21.0272 26019.1 -03505.7 -07.6735 26254.2
 03 11 2013  08 23  -21.0270 26019.0 -03505.7 -07.6735 26254.1
 03 11 2013  08 24  -21.0269 26018.8 -03505.6 -07.6734 26253.9
 03 11 2013  08 25  -21.0265 26018.7 -03505.5 -07.6733 26253.8
 03 11 2013  08 26  -21.0262 26018.6 -03505.4 -07.6732 26253.6
 03 11 2013  08 27  -21.0256 26018.5 -03505.4 -07.6732 26253.6
 03 11 2013  08 28  -21.0253 26018.3 -03505.5 -07.6733 26253.4
 03 11 2013  08 29  -21.0248 26018.3 -03505.5 -07.6735 26253.4
 03 11 2013  08 30  -21.0243 26018.3 -03505.7 -07.6738 26253.4
 03 11 2013  08 31  -21.0240 26018.2 -03505.8 -07.6741 26253.3
 03 11 2013  08 32  -21.0237 26018.1 -03505.9 -07.6743 26253.2
 03 11 2013  08 33  -21.0234 26017.9 -03506.0 -07.6745 26253.1
 03 11 2013  08 34  -21.0233 26017.8 -03506.1 -07.6749 26253.0
 03 11 2013  08 35  -21.0231 26017.6 -03506.4 -07.6755 26252.8
 03 11 2013  08 36  -21.0232 26017.6 -03506.6 -07.6760 26252.9
 03 11 2013  08 37  -21.0237 26017.7 -03507.0 -07.6767 26253.0
 03 11 2013  08 38  -21.0244 26017.9 -03507.3 -07.6774 26253.2
 03 11 2013  08 39  -21.0250 26018.0 -03507.6 -07.6780 26253.4
 03 11 2013  08 40  -21.0256 26018.1 -03507.8 -07.6785 26253.5
 03 11 2013  08 41  -21.0258 26018.1 -03508.0 -07.6788 26253.5
 03 11 2013  08 42  -21.0263 26018.2 -03508.2 -07.6792 26253.6
 03 11 2013  08 43  -21.0271 26018.4 -03508.5 -07.6798 26253.9
 03 11 2013  08 44  -21.0278 26018.5 -03508.7 -07.6802 26254.0
 03 11 2013  08 45  -21.0285 26018.6 -03508.9 -07.6806 26254.1
 03 11 2013  08 46  -21.0290 26018.7 -03509.0 -07.6809 26254.2
 03 11 2013  08 47  -21.0293 26018.7 -03509.2 -07.6812 26254.3
 03 11 2013  08 48  -21.0296 26018.8 -03509.4 -07.6816 26254.4
 03 11 2013  08 49  -21.0300 26018.9 -03509.6 -07.6820 26254.6
 03 11 2013  08 50  -21.0301 26019.0 -03509.8 -07.6824 26254.6
 03 11 2013  08 51  -21.0303 26019.0 -03509.9 -07.6828 26254.7
 03 11 2013  08 52  -21.0307 26019.1 -03510.1 -07.6831 26254.8
 03 11 2013  08 53  -21.0313 26019.2 -03510.4 -07.6836 26254.9
 03 11 2013  08 54  -21.0318 26019.2 -03510.5 -07.6839 26254.9
 03 11 2013  08 55  -21.0322 26019.1 -03510.6 -07.6842 26254.9
 03 11 2013  08 56  -21.0325 26019.1 -03510.7 -07.6844 26254.9
 03 11 2013  08 57  -21.0330 26019.0 -03510.8 -07.6846 26254.8
 03 11 2013  08 58  -21.0336 26019.1 -03510.9 -07.6849 26254.9
 03 11 2013  08 59  -21.0343 26019.1 -03511.0 -07.6851 26255.0
 03 11 2013  09 00  -21.0351 26019.2 -03511.2 -07.6854 26255.1
 03 11 2013  09 01  -21.0359 26019.3 -03511.3 -07.6857 26255.2
 03 11 2013  09 02  -21.0367 26019.3 -03511.4 -07.6858 26255.1
 03 11 2013  09 03  -21.0376 26019.3 -03511.4 -07.6859 26255.2
 03 11 2013  09 04  -21.0384 26019.4 -03511.5 -07.6860 26255.2
 03 11 2013  09 05  -21.0393 26019.4 -03511.6 -07.6862 26255.3
 03 11 2013  09 06  -21.0402 26019.4 -03511.7 -07.6864 26255.3
 03 11 2013  09 07  -21.0407 26019.4 -03511.7 -07.6865 26255.3
 03 11 2013  09 08  -21.0416 26019.4 -03511.8 -07.6867 26255.3
 03 11 2013  09 09  -21.0426 26019.4 -03511.9 -07.6869 26255.4
 03 11 2013  09 10  -21.0435 26019.4 -03512.0 -07.6870 26255.4
 03 11 2013  09 11  -21.0443 26019.4 -03512.0 -07.6871 26255.4
 03 11 2013  09 12  -21.0454 26019.7 -03512.1 -07.6873 26255.6
 03 11 2013  09 13  -21.0464 26019.9 -03512.2 -07.6875 26255.9
 03 11 2013  09 14  -21.0472 26020.0 -03512.3 -07.6876 26256.0
 03 11 2013  09 15  -21.0480 26020.0 -03512.3 -07.6876 26256.0
 03 11 2013  09 16  -21.0488 26020.1 -03512.3 -07.6876 26256.1
 03 11 2013  09 17  -21.0497 26020.2 -03512.4 -07.6876 26256.2
 03 11 2013  09 18  -21.0506 26020.4 -03512.4 -07.6876 26256.3
 03 11 2013  09 19  -21.0518 26020.6 -03512.5 -07.6877 26256.6
 03 11 2013  09 20  -21.0528 26020.8 -03512.5 -07.6877 26256.8
 03 11 2013  09 21  -21.0540 26021.1 -03512.5 -07.6877 26257.1
 03 11 2013  09 22  -21.0550 26021.3 -03512.5 -07.6876 26257.3
 03 11 2013  09 23  -21.0561 26021.5 -03512.5 -07.6875 26257.5
 03 11 2013  09 24  -21.0569 26021.7 -03512.4 -07.6873 26257.7
 03 11 2013  09 25  -21.0578 26021.8 -03512.3 -07.6870 26257.8
 03 11 2013  09 26  -21.0586 26021.9 -03512.2 -07.6868 26257.9
 03 11 2013  09 27  -21.0592 26022.0 -03512.1 -07.6866 26257.9
 03 11 2013  09 28  -21.0598 26022.2 -03512.1 -07.6865 26258.1
 03 11 2013  09 29  -21.0604 26022.2 -03512.0 -07.6863 26258.2
 03 11 2013  09 30  -21.0610 26022.3 -03512.0 -07.6862 26258.2
 03 11 2013  09 31  -21.0619 26022.6 -03511.9 -07.6860 26258.5
 03 11 2013  09 32  -21.0632 26023.0 -03512.0 -07.6860 26259.0
 03 11 2013  09 33  -21.0644 26023.5 -03512.0 -07.6859 26259.4
 03 11 2013  09 34  -21.0654 26023.8 -03511.9 -07.6855 26259.7
 03 11 2013  09 35  -21.0662 26024.1 -03511.8 -07.6853 26260.0
 03 11 2013  09 36  -21.0668 26024.3 -03511.7 -07.6850 26260.1
 03 11 2013  09 37  -21.0669 26024.0 -03511.4 -07.6844 26259.8
 03 11 2013  09 38  -21.0670 26023.8 -03511.1 -07.6840 26259.6
 03 11 2013  09 39  -21.0674 26023.8 -03511.1 -07.6839 26259.6
 03 11 2013  09 40  -21.0677 26024.0 -03511.1 -07.6838 26259.8
 03 11 2013  09 41  -21.0682 26024.2 -03511.1 -07.6838 26260.0
 03 11 2013  09 42  -21.0686 26024.5 -03511.1 -07.6837 26260.2
 03 11 2013  09 43  -21.0693 26024.7 -03511.1 -07.6837 26260.5
 03 11 2013  09 44  -21.0702 26025.0 -03511.1 -07.6836 26260.8
 03 11 2013  09 45  -21.0708 26025.2 -03511.1 -07.6834 26260.9
 03 11 2013  09 46  -21.0715 26025.3 -03511.0 -07.6832 26261.1
 03 11 2013  09 47  -21.0720 26025.5 -03510.9 -07.6830 26261.3
 03 11 2013  09 48  -21.0724 26025.8 -03510.9 -07.6828 26261.5
 03 11 2013  09 49  -21.0729 26025.9 -03510.8 -07.6827 26261.7
 03 11 2013  09 50  -21.0735 26026.1 -03510.8 -07.6826 26261.9
 03 11 2013  09 51  -21.0740 26026.3 -03510.8 -07.6824 26262.0
 03 11 2013  09 52  -21.0742 26026.3 -03510.6 -07.6821 26262.0
 03 11 2013  09 53  -21.0745 26026.4 -03510.6 -07.6819 26262.1
 03 11 2013  09 54  -21.0749 26026.7 -03510.5 -07.6818 26262.4
 03 11 2013  09 55  -21.0753 26027.0 -03510.6 -07.6818 26262.7
 03 11 2013  09 56  -21.0759 26027.2 -03510.5 -07.6816 26262.9
 03 11 2013  09 57  -21.0760 26027.2 -03510.4 -07.6813 26262.9
 03 11 2013  09 58  -21.0762 26027.3 -03510.2 -07.6809 26262.9
 03 11 2013  09 59  -21.0766 26027.5 -03510.2 -07.6808 26263.1
 03 11 2013  10 00  -21.0771 26027.9 -03510.2 -07.6807 26263.5
 03 11 2013  10 01  -21.0776 26028.2 -03510.2 -07.6806 26263.8
 03 11 2013  10 02  -21.0780 26028.4 -03510.1 -07.6804 26264.0
 03 11 2013  10 03  -21.0785 26028.6 -03510.1 -07.6803 26264.2
 03 11 2013  10 04  -21.0789 26028.8 -03510.1 -07.6802 26264.4
 03 11 2013  10 05  -21.0790 26028.9 -03510.0 -07.6799 26264.5
 03 11 2013  10 06  -21.0790 26028.9 -03509.9 -07.6797 26264.5
 03 11 2013  10 07  -21.0791 26028.9 -03509.8 -07.6796 26264.5
 03 11 2013  10 08  -21.0792 26029.0 -03509.8 -07.6794 26264.6
 03 11 2013  10 09  -21.0794 26029.2 -03509.7 -07.6794 26264.7
 03 11 2013  10 10  -21.0795 26029.4 -03509.8 -07.6793 26265.0
 03 11 2013  10 11  -21.0795 26029.6 -03509.7 -07.6792 26265.2
 03 11 2013  10 12  -21.0795 26029.8 -03509.7 -07.6790 26265.4
 03 11 2013  10 13  -21.0795 26030.1 -03509.7 -07.6789 26265.6
 03 11 2013  10 14  -21.0796 26030.5 -03509.7 -07.6788 26266.0
 03 11 2013  10 15  -21.0795 26030.7 -03509.6 -07.6787 26266.3
 03 11 2013  10 16  -21.0794 26030.9 -03509.5 -07.6784 26266.5
 03 11 2013  10 17  -21.0792 26031.2 -03509.5 -07.6782 26266.7
 03 11 2013  10 18  -21.0788 26031.6 -03509.5 -07.6780 26267.1
 03 11 2013  10 19  -21.0786 26032.0 -03509.5 -07.6780 26267.5
 03 11 2013  10 20  -21.0786 26032.5 -03509.5 -07.6778 26268.0
 03 11 2013  10 21  -21.0786 26032.9 -03509.5 -07.6777 26268.4
 03 11 2013  10 22  -21.0786 26033.4 -03509.5 -07.6775 26268.9
 03 11 2013  10 23  -21.0784 26034.0 -03509.4 -07.6773 26269.4
 03 11 2013  10 24  -21.0786 26034.4 -03509.3 -07.6770 26269.9
 03 11 2013  10 25  -21.0786 26034.8 -03509.2 -07.6766 26270.2
 03 11 2013  10 26  -21.0784 26035.0 -03509.1 -07.6763 26270.4
 03 11 2013  10 27  -21.0785 26035.3 -03509.0 -07.6759 26270.7
 03 11 2013  10 28  -21.0784 26035.3 -03508.8 -07.6756 26270.7
 03 11 2013  10 29  -21.0783 26035.6 -03508.8 -07.6754 26271.0
 03 11 2013  10 30  -21.0783 26035.9 -03508.8 -07.6754 26271.3
 03 11 2013  10 31  -21.0782 26036.2 -03508.8 -07.6752 26271.6
 03 11 2013  10 32  -21.0780 26036.4 -03508.7 -07.6750 26271.8
 03 11 2013  10 33  -21.0777 26036.5 -03508.6 -07.6748 26271.8
 03 11 2013  10 34  -21.0774 26036.6 -03508.5 -07.6746 26272.0
 03 11 2013  10 35  -21.0774 26036.8 -03508.5 -07.6745 26272.1
 03 11 2013  10 36  -21.0772 26036.9 -03508.5 -07.6744 26272.2
 03 11 2013  10 37  -21.0769 26037.1 -03508.5 -07.6743 26272.5
 03 11 2013  10 38  -21.0770 26037.3 -03508.5 -07.6742 26272.6
 03 11 2013  10 39  -21.0770 26037.5 -03508.4 -07.6741 26272.8
 03 11 2013  10 40  -21.0769 26037.7 -03508.4 -07.6739 26273.0
 03 11 2013  10 41  -21.0767 26037.8 -03508.3 -07.6737 26273.1
 03 11 2013  10 42  -21.0763 26038.0 -03508.2 -07.6734 26273.3
 03 11 2013  10 43  -21.0763 26038.3 -03508.2 -07.6733 26273.6
 03 11 2013  10 44  -21.0765 26038.6 -03508.1 -07.6731 26273.9
 03 11 2013  10 45  -21.0765 26038.7 -03508.0 -07.6729 26274.0
 03 11 2013  10 46  -21.0766 26038.8 -03507.9 -07.6726 26274.0
 03 11 2013  10 47  -21.0764 26038.8 -03507.8 -07.6723 26274.0
 03 11 2013  10 48  -21.0764 26038.9 -03507.7 -07.6721 26274.1
 03 11 2013  10 49  -21.0763 26039.0 -03507.6 -07.6719 26274.2
 03 11 2013  10 50  -21.0764 26039.2 -03507.6 -07.6719 26274.4
 03 11 2013  10 51  -21.0765 26039.5 -03507.7 -07.6719 26274.7
 03 11 2013  10 52  -21.0765 26039.8 -03507.7 -07.6718 26275.0
 03 11 2013  10 53  -21.0765 26040.4 -03507.8 -07.6719 26275.6
 03 11 2013  10 54  -21.0765 26040.8 -03507.8 -07.6717 26276.0
 03 11 2013  10 55  -21.0761 26040.9 -03507.6 -07.6714 26276.1
 03 11 2013  10 56  -21.0758 26041.0 -03507.5 -07.6711 26276.2
 03 11 2013  10 57  -21.0756 26041.4 -03507.5 -07.6710 26276.5
 03 11 2013  10 58  -21.0753 26041.5 -03507.4 -07.6707 26276.6
 03 11 2013  10 59  -21.0750 26041.9 -03507.4 -07.6707 26277.0
 03 11 2013  11 00  -21.0746 26042.0 -03507.4 -07.6705 26277.1
 03 11 2013  11 01  -21.0745 26042.0 -03507.2 -07.6701 26277.1
 03 11 2013  11 02  -21.0744 26042.3 -03507.3 -07.6702 26277.4
 03 11 2013  11 03  -21.0740 26042.5 -03507.2 -07.6699 26277.6
 03 11 2013  11 04  -21.0735 26042.7 -03507.1 -07.6697 26277.8
 03 11 2013  11 05  -21.0730 26043.1 -03507.0 -07.6695 26278.2
 03 11 2013  11 06  -21.0726 26043.5 -03507.0 -07.6693 26278.5
 03 11 2013  11 07  -21.0723 26043.9 -03506.9 -07.6690 26278.9
 03 11 2013  11 08  -21.0720 26044.4 -03506.9 -07.6688 26279.4
 03 11 2013  11 09  -21.0717 26045.0 -03506.9 -07.6687 26280.0
 03 11 2013  11 10  -21.0715 26045.3 -03506.8 -07.6684 26280.3
 03 11 2013  11 11  -21.0717 26045.4 -03506.6 -07.6679 26280.4
 03 11 2013  11 12  -21.0716 26045.5 -03506.4 -07.6674 26280.5
 03 11 2013  11 13  -21.0715 26045.6 -03506.2 -07.6669 26280.5
 03 11 2013  11 14  -21.0711 26045.7 -03506.0 -07.6664 26280.6
 03 11 2013  11 15  -21.0705 26045.9 -03505.9 -07.6661 26280.8
 03 11 2013  11 16  -21.0703 26046.3 -03505.8 -07.6658 26281.2
 03 11 2013  11 17  -21.0699 26046.4 -03505.6 -07.6653 26281.3
 03 11 2013  11 18  -21.0693 26046.8 -03505.5 -07.6650 26281.6
 03 11 2013  11 19  -21.0688 26046.9 -03505.3 -07.6645 26281.7
 03 11 2013  11 20  -21.0683 26047.1 -03505.1 -07.6641 26281.8
 03 11 2013  11 21  -21.0684 26047.4 -03505.0 -07.6639 26282.2
 03 11 2013  11 22  -21.0678 26047.6 -03504.8 -07.6634 26282.3
 03 11 2013  11 23  -21.0669 26047.8 -03504.6 -07.6629 26282.5
 03 11 2013  11 24  -21.0664 26047.8 -03504.4 -07.6624 26282.5
 03 11 2013  11 25  -21.0659 26048.2 -03504.3 -07.6621 26282.9
 03 11 2013  11 26  -21.0654 26048.6 -03504.2 -07.6617 26283.2
 03 11 2013  11 27  -21.0649 26048.9 -03504.0 -07.6613 26283.5
 03 11 2013  11 28  -21.0646 26049.1 -03503.9 -07.6609 26283.7
 03 11 2013  11 29  -21.0643 26049.1 -03503.7 -07.6604 26283.7
 03 11 2013  11 30  -21.0640 26049.2 -03503.4 -07.6599 26283.7
 03 11 2013  11 31  -21.0635 26049.3 -03503.3 -07.6595 26283.8
 03 11 2013  11 32  -21.0632 26049.3 -03503.1 -07.6591 26283.8
 03 11 2013  11 33  -21.0628 26049.7 -03503.0 -07.6589 26284.1
 03 11 2013  11 34  -21.0624 26050.0 -03503.0 -07.6586 26284.5
 03 11 2013  11 35  -21.0621 26050.4 -03502.9 -07.6584 26284.9
 03 11 2013  11 36  -21.0617 26050.7 -03502.8 -07.6581 26285.1
 03 11 2013  11 37  -21.0617 26050.9 -03502.6 -07.6576 26285.3
 03 11 2013  11 38  -21.0617 26051.1 -03502.5 -07.6573 26285.5
 03 11 2013  11 39  -21.0614 26051.2 -03502.3 -07.6568 26285.6
 03 11 2013  11 40  -21.0612 26051.4 -03502.1 -07.6564 26285.7
 03 11 2013  11 41  -21.0610 26051.7 -03502.1 -07.6562 26286.0
 03 11 2013  11 42  -21.0609 26052.0 -03501.9 -07.6559 26286.3
 03 11 2013  11 43  -21.0607 26052.2 -03501.8 -07.6554 26286.5
 03 11 2013  11 44  -21.0607 26052.5 -03501.6 -07.6550 26286.8
 03 11 2013  11 45  -21.0607 26052.7 -03501.5 -07.6547 26287.0
 03 11 2013  11 46  -21.0608 26053.0 -03501.3 -07.6542 26287.2
 03 11 2013  11 47  -21.0607 26053.3 -03501.2 -07.6539 26287.5
 03 11 2013  11 48  -21.0606 26053.5 -03501.0 -07.6533 26287.7
 03 11 2013  11 49  -21.0606 26053.9 -03500.9 -07.6529 26288.1
 03 11 2013  11 50  -21.0608 26054.1 -03500.6 -07.6524 26288.2
 03 11 2013  11 51  -21.0610 26054.4 -03500.5 -07.6519 26288.5
 03 11 2013  11 52  -21.0611 26054.6 -03500.2 -07.6514 26288.6
 03 11 2013  11 53  -21.0610 26054.9 -03500.1 -07.6510 26289.0
 03 11 2013  11 54  -21.0608 26055.1 -03499.8 -07.6504 26289.1
 03 11 2013  11 55  -21.0608 26055.2 -03499.6 -07.6498 26289.2
 03 11 2013  11 56  -21.0606 26055.6 -03499.4 -07.6494 26289.6
 03 11 2013  11 57  -21.0605 26055.9 -03499.2 -07.6488 26289.8
 03 11 2013  11 58  -21.0606 26056.2 -03499.0 -07.6484 26290.0
 03 11 2013  11 59  -21.0607 26056.6 -03498.9 -07.6480 26290.4
 03 11 2013  12 00  -21.0606 26056.9 -03498.7 -07.6475 26290.7
 03 11 2013  12 01  -21.0605 26057.3 -03498.6 -07.6471 26291.1
 03 11 2013  12 02  -21.0605 26057.6 -03498.4 -07.6466 26291.4
 03 11 2013  12 03  -21.0603 26058.2 -03498.3 -07.6463 26292.0
 03 11 2013  12 04  -21.0600 26058.5 -03498.1 -07.6457 26292.3
 03 11 2013  12 05  -21.0599 26058.8 -03498.0 -07.6453 26292.5
 03 11 2013  12 06  -21.0596 26059.2 -03497.8 -07.6448 26292.9
 03 11 2013  12 07  -21.0591 26059.8 -03497.7 -07.6444 26293.4
 03 11 2013  12 08  -21.0582 26060.6 -03497.6 -07.6441 26294.2
 03 11 2013  12 09  -21.0577 26061.5 -03497.6 -07.6437 26295.1
 03 11 2013  12 10  -21.0573 26062.5 -03497.5 -07.6433 26296.1
 03 11 2013  12 11  -21.0571 26063.4 -03497.4 -07.6427 26297.0
 03 11 2013  12 12  -21.0573 26064.3 -03497.3 -07.6422 26297.9
 03 11 2013  12 13  -21.0576 26065.0 -03497.0 -07.6414 26298.5
 03 11 2013  12 14  -21.0580 26065.5 -03496.7 -07.6407 26299.0
 03 11 2013  12 15  -21.0582 26065.7 -03496.3 -07.6397 26299.1
 03 11 2013  12 16  -21.0586 26065.8 -03495.9 -07.6388 26299.1
 03 11 2013  12 17  -21.0589 26065.9 -03495.6 -07.6381 26299.3
 03 11 2013  12 18  -21.0590 26066.1 -03495.3 -07.6374 26299.4
 03 11 2013  12 19  -21.0592 26066.4 -03495.1 -07.6369 26299.7
 03 11 2013  12 20  -21.0592 26066.9 -03494.9 -07.6364 26300.1
 03 11 2013  12 21  -21.0591 26067.5 -03494.7 -07.6358 26300.7
 03 11 2013  12 22  -21.0593 26067.9 -03494.5 -07.6353 26301.1
 03 11 2013  12 23  -21.0596 26068.3 -03494.4 -07.6348 26301.4
 03 11 2013  12 24  -21.0598 26068.7 -03494.2 -07.6342 26301.8
 03 11 2013  12 25  -21.0599 26069.1 -03494.0 -07.6337 26302.2
 03 11 2013  12 26  -21.0602 26069.6 -03493.8 -07.6331 26302.6
 03 11 2013  12 27  -21.0603 26070.0 -03493.5 -07.6325 26303.1
 03 11 2013  12 28  -21.0603 26070.5 -03493.3 -07.6318 26303.5
 03 11 2013  12 29  -21.0603 26070.8 -03493.0 -07.6311 26303.7
 03 11 2013  12 30  -21.0604 26071.1 -03492.7 -07.6304 26304.0
 03 11 2013  12 31  -21.0605 26071.4 -03492.4 -07.6296 26304.2
 03 11 2013  12 32  -21.0606 26071.6 -03492.1 -07.6289 26304.4
 03 11 2013  12 33  -21.0606 26071.8 -03491.8 -07.6282 26304.6
 03 11 2013  12 34  -21.0607 26072.1 -03491.6 -07.6276 26304.8
 03 11 2013  12 35  -21.0607 26072.6 -03491.4 -07.6271 26305.3
 03 11 2013  12 36  -21.0606 26073.1 -03491.2 -07.6266 26305.8
 03 11 2013  12 37  -21.0603 26073.5 -03490.9 -07.6259 26306.2
 03 11 2013  12 38  -21.0603 26074.0 -03490.7 -07.6253 26306.6
 03 11 2013  12 39  -21.0603 26074.4 -03490.5 -07.6247 26307.0
 03 11 2013  12 40  -21.0604 26074.8 -03490.3 -07.6241 26307.4
 03 11 2013  12 41  -21.0605 26075.3 -03490.1 -07.6235 26307.8
 03 11 2013  12 42  -21.0604 26075.7 -03489.9 -07.6229 26308.2
 03 11 2013  12 43  -21.0600 26076.3 -03489.7 -07.6224 26308.7
 03 11 2013  12 44  -21.0595 26076.6 -03489.4 -07.6216 26309.1
 03 11 2013  12 45  -21.0591 26077.0 -03489.2 -07.6210 26309.4
 03 11 2013  12 46  -21.0586 26077.4 -03488.9 -07.6204 26309.8
 03 11 2013  12 47  -21.0582 26077.8 -03488.7 -07.6198 26310.1
 03 11 2013  12 48  -21.0579 26078.1 -03488.4 -07.6192 26310.4
 03 11 2013  12 49  -21.0578 26078.5 -03488.3 -07.6188 26310.8
 03 11 2013  12 50  -21.0576 26079.1 -03488.2 -07.6184 26311.3
 03 11 2013  12 51  -21.0574 26079.5 -03488.1 -07.6180 26311.7
 03 11 2013  12 52  -21.0572 26080.1 -03488.0 -07.6176 26312.4
 03 11 2013  12 53  -21.0572 26080.8 -03487.9 -07.6172 26313.0
 03 11 2013  12 54  -21.0572 26081.4 -03487.7 -07.6167 26313.6
 03 11 2013  12 55  -21.0575 26081.9 -03487.5 -07.6161 26314.0
 03 11 2013  12 56  -21.0577 26082.3 -03487.3 -07.6154 26314.4
 03 11 2013  12 57  -21.0579 26082.6 -03487.0 -07.6147 26314.6
 03 11 2013  12 58  -21.0579 26082.9 -03486.7 -07.6140 26314.9
 03 11 2013  12 59  -21.0575 26083.4 -03486.4 -07.6133 26315.3
 03 11 2013  13 00  -21.0571 26083.6 -03486.1 -07.6125 26315.6
 03 11 2013  13 01  -21.0565 26084.1 -03485.9 -07.6119 26316.0
 03 11 2013  13 02  -21.0559 26084.6 -03485.8 -07.6115 26316.5
 03 11 2013  13 03  -21.0553 26085.0 -03485.5 -07.6109 26316.8
 03 11 2013  13 04  -21.0547 26085.3 -03485.3 -07.6102 26317.1
 03 11 2013  13 05  -21.0539 26085.8 -03485.1 -07.6097 26317.6
 03 11 2013  13 06  -21.0531 26086.3 -03484.9 -07.6092 26318.1
 03 11 2013  13 07  -21.0524 26086.8 -03484.7 -07.6087 26318.5
 03 11 2013  13 08  -21.0519 26087.2 -03484.5 -07.6081 26318.9
 03 11 2013  13 09  -21.0516 26087.3 -03484.2 -07.6074 26318.9
 03 11 2013  13 10  -21.0513 26087.4 -03484.0 -07.6068 26319.0
 03 11 2013  13 11  -21.0509 26087.7 -03483.8 -07.6063 26319.3
 03 11 2013  13 12  -21.0505 26088.0 -03483.6 -07.6059 26319.6
 03 11 2013  13 13  -21.0500 26088.3 -03483.4 -07.6053 26319.8
 03 11 2013  13 14  -21.0497 26088.3 -03483.1 -07.6046 26319.8
 03 11 2013  13 15  -21.0496 26088.4 -03482.8 -07.6041 26319.8
 03 11 2013  13 16  -21.0494 26088.3 -03482.6 -07.6036 26319.7
 03 11 2013  13 17  -21.0490 26088.3 -03482.3 -07.6030 26319.7
 03 11 2013  13 18  -21.0486 26088.2 -03482.1 -07.6025 26319.6
 03 11 2013  13 19  -21.0484 26088.0 -03481.8 -07.6020 26319.4
 03 11 2013  13 20  -21.0480 26088.0 -03481.6 -07.6015 26319.3
 03 11 2013  13 21  -21.0478 26088.1 -03481.5 -07.6012 26319.4
 03 11 2013  13 22  -21.0474 26088.2 -03481.3 -07.6008 26319.5
 03 11 2013  13 23  -21.0470 26088.3 -03481.1 -07.6004 26319.5
 03 11 2013  13 24  -21.0466 26088.2 -03480.8 -07.5998 26319.4
 03 11 2013  13 25  -21.0461 26088.2 -03480.6 -07.5994 26319.4
 03 11 2013  13 26  -21.0458 26088.2 -03480.4 -07.5990 26319.3
 03 11 2013  13 27  -21.0453 26088.1 -03480.2 -07.5985 26319.2
 03 11 2013  13 28  -21.0451 26088.2 -03480.1 -07.5982 26319.3
 03 11 2013  13 29  -21.0448 26088.4 -03479.9 -07.5978 26319.5
 03 11 2013  13 30  -21.0446 26088.6 -03479.8 -07.5974 26319.6
 03 11 2013  13 31  -21.0444 26088.6 -03479.5 -07.5969 26319.6
 03 11 2013  13 32  -21.0442 26088.7 -03479.3 -07.5964 26319.6
 03 11 2013  13 33  -21.0438 26088.7 -03479.0 -07.5958 26319.6
 03 11 2013  13 34  -21.0435 26088.6 -03478.8 -07.5952 26319.5
 03 11 2013  13 35  -21.0430 26088.6 -03478.5 -07.5947 26319.4
 03 11 2013  13 36  -21.0425 26088.5 -03478.2 -07.5940 26319.4
 03 11 2013  13 37  -21.0419 26088.4 -03478.0 -07.5937 26319.2
 03 11 2013  13 38  -21.0414 26088.4 -03477.8 -07.5932 26319.1
 03 11 2013  13 39  -21.0409 26088.3 -03477.6 -07.5928 26319.1
 03 11 2013  13 40  -21.0405 26088.3 -03477.4 -07.5925 26319.1
 03 11 2013  13 41  -21.0401 26088.2 -03477.2 -07.5920 26318.9
 03 11 2013  13 42  -21.0399 26088.2 -03477.1 -07.5917 26318.9
 03 11 2013  13 43  -21.0394 26088.1 -03476.9 -07.5914 26318.8
 03 11 2013  13 44  -21.0389 26088.1 -03476.7 -07.5910 26318.7
 03 11 2013  13 45  -21.0384 26088.1 -03476.6 -07.5907 26318.8
 03 11 2013  13 46  -21.0380 26088.2 -03476.5 -07.5905 26318.9
 03 11 2013  13 47  -21.0375 26088.3 -03476.4 -07.5901 26318.9
 03 11 2013  13 48  -21.0370 26088.3 -03476.2 -07.5897 26318.9
 03 11 2013  13 49  -21.0364 26088.3 -03476.0 -07.5893 26318.9
 03 11 2013  13 50  -21.0359 26088.3 -03475.8 -07.5890 26318.8
 03 11 2013  13 51  -21.0353 26088.3 -03475.6 -07.5886 26318.8
 03 11 2013  13 52  -21.0347 26088.3 -03475.5 -07.5882 26318.8
 03 11 2013  13 53  -21.0341 26088.3 -03475.3 -07.5878 26318.7
 03 11 2013  13 54  -21.0335 26088.4 -03475.1 -07.5874 26318.8
 03 11 2013  13 55  -21.0328 26088.3 -03474.9 -07.5870 26318.7
 03 11 2013  13 56  -21.0322 26088.3 -03474.7 -07.5866 26318.7
 03 11 2013  13 57  -21.0314 26088.3 -03474.6 -07.5863 26318.7
 03 11 2013  13 58  -21.0307 26088.2 -03474.4 -07.5858 26318.6
 03 11 2013  13 59  -21.0297 26088.1 -03474.1 -07.5854 26318.4
 03 11 2013  14 00  -21.0291 26088.0 -03474.0 -07.5851 26318.3
 03 11 2013  14 01  -21.0282 26087.9 -03473.8 -07.5847 26318.1
 03 11 2013  14 02  -21.0277 26088.0 -03473.7 -07.5845 26318.2
 03 11 2013  14 03  -21.0270 26087.9 -03473.6 -07.5842 26318.2
 03 11 2013  14 04  -21.0261 26087.7 -03473.3 -07.5837 26318.0
 03 11 2013  14 05  -21.0254 26087.8 -03473.2 -07.5836 26318.0
 03 11 2013  14 06  -21.0247 26087.8 -03473.2 -07.5834 26318.0
 03 11 2013  14 07  -21.0240 26087.9 -03473.1 -07.5832 26318.1
 03 11 2013  14 08  -21.0230 26088.0 -03473.0 -07.5830 26318.2
 03 11 2013  14 09  -21.0221 26087.6 -03472.7 -07.5825 26317.7
 03 11 2013  14 10  -21.0209 26087.3 -03472.5 -07.5822 26317.4
 03 11 2013  14 11  -21.0200 26087.0 -03472.4 -07.5820 26317.1
 03 11 2013  14 12  -21.0193 26087.0 -03472.4 -07.5820 26317.1
 03 11 2013  14 13  -21.0186 26086.7 -03472.3 -07.5819 26316.8
 03 11 2013  14 14  -21.0181 26086.9 -03472.4 -07.5820 26317.0
 03 11 2013  14 15  -21.0176 26087.1 -03472.5 -07.5821 26317.2
 03 11 2013  14 16  -21.0171 26087.1 -03472.4 -07.5819 26317.2
 03 11 2013  14 17  -21.0165 26087.0 -03472.3 -07.5818 26317.1
 03 11 2013  14 18  -21.0159 26086.8 -03472.2 -07.5816 26316.9
 03 11 2013  14 19  -21.0151 26086.5 -03472.0 -07.5813 26316.6
 03 11 2013  14 20  -21.0145 26086.2 -03471.9 -07.5810 26316.2
 03 11 2013  14 21  -21.0139 26086.0 -03471.8 -07.5810 26316.1
 03 11 2013  14 22  -21.0132 26085.5 -03471.6 -07.5807 26315.5
 03 11 2013  14 23  -21.0122 26085.6 -03471.6 -07.5807 26315.6
 03 11 2013  14 24  -21.0116 26085.5 -03471.6 -07.5807 26315.5
 03 11 2013  14 25  -21.0108 26085.4 -03471.6 -07.5806 26315.4
 03 11 2013  14 26  -21.0100 26085.7 -03471.6 -07.5807 26315.7
 03 11 2013  14 27  -21.0091 26085.5 -03471.6 -07.5806 26315.5
 03 11 2013  14 28  -21.0082 26085.8 -03471.7 -07.5807 26315.8
 03 11 2013  14 29  -21.0075 26085.7 -03471.6 -07.5805 26315.7
 03 11 2013  14 30  -21.0067 26085.5 -03471.5 -07.5804 26315.5
 03 11 2013  14 31  -21.0058 26085.1 -03471.3 -07.5801 26315.1
 03 11 2013  14 32  -21.0049 26084.7 -03471.2 -07.5800 26314.7
 03 11 2013  14 33  -21.0039 26084.5 -03471.2 -07.5800 26314.5
 03 11 2013  14 34  -21.0028 26084.2 -03471.1 -07.5800 26314.2
 03 11 2013  14 35  -21.0016 26083.9 -03471.1 -07.5800 26313.8
 03 11 2013  14 36  -21.0007 26084.0 -03471.2 -07.5803 26313.9
 03 11 2013  14 37  -20.9999 26084.1 -03471.4 -07.5807 26314.1
 03 11 2013  14 38  -20.9989 26084.3 -03471.6 -07.5810 26314.3
 03 11 2013  14 39  -20.9980 26084.1 -03471.6 -07.5811 26314.1
 03 11 2013  14 40  -20.9969 26083.8 -03471.6 -07.5812 26313.9
 03 11 2013  14 41  -20.9960 26084.0 -03471.8 -07.5815 26314.0
 03 11 2013  14 42  -20.9952 26084.0 -03471.9 -07.5818 26314.1
 03 11 2013  14 43  -20.9944 26084.2 -03472.1 -07.5821 26314.2
 03 11 2013  14 44  -20.9936 26083.9 -03472.0 -07.5821 26314.0
 03 11 2013  14 45  -20.9929 26083.7 -03472.1 -07.5822 26313.7
 03 11 2013  14 46  -20.9922 26083.5 -03472.1 -07.5824 26313.6
 03 11 2013  14 47  -20.9917 26083.4 -03472.2 -07.5826 26313.5
 03 11 2013  14 48  -20.9911 26083.2 -03472.3 -07.5828 26313.3
 03 11 2013  14 49  -20.9906 26083.1 -03472.4 -07.5831 26313.2
 03 11 2013  14 50  -20.9902 26082.8 -03472.4 -07.5832 26312.9
 03 11 2013  14 51  -20.9897 26082.5 -03472.4 -07.5833 26312.6
 03 11 2013  14 52  -20.9893 26082.3 -03472.6 -07.5837 26312.5
 03 11 2013  14 53  -20.9890 26082.1 -03472.6 -07.5839 26312.3
 03 11 2013  14 54  -20.9886 26081.8 -03472.7 -07.5841 26312.0
 03 11 2013  14 55  -20.9883 26081.6 -03472.8 -07.5844 26311.8
 03 11 2013  14 56  -20.9880 26081.5 -03472.9 -07.5847 26311.7
 03 11 2013  14 57  -20.9876 26081.2 -03473.0 -07.5850 26311.4
 03 11 2013  14 58  -20.9874 26081.1 -03473.2 -07.5853 26311.3
 03 11 2013  14 59  -20.9869 26080.8 -03473.2 -07.5855 26311.0
 03 11 2013  15 00  -20.9865 26080.5 -03473.3 -07.5858 26310.8
 03 11 2013  15 01  -20.9861 26080.4 -03473.5 -07.5862 26310.7
 03 11 2013  15 02  -20.9859 26080.1 -03473.6 -07.5866 26310.4
 03 11 2013  15 03  -20.9855 26079.8 -03473.7 -07.5869 26310.1
 03 11 2013  15 04  -20.9854 26079.6 -03473.9 -07.5873 26309.9
 03 11 2013  15 05  -20.9853 26079.4 -03474.0 -07.5877 26309.8
 03 11 2013  15 06  -20.9851 26079.2 -03474.2 -07.5882 26309.6
 03 11 2013  15 07  -20.9852 26079.1 -03474.5 -07.5887 26309.5
 03 11 2013  15 08  -20.9851 26078.9 -03474.6 -07.5891 26309.3
 03 11 2013  15 09  -20.9852 26078.7 -03474.8 -07.5896 26309.2
 03 11 2013  15 10  -20.9851 26078.6 -03475.0 -07.5900 26309.1
 03 11 2013  15 11  -20.9849 26078.3 -03475.1 -07.5904 26308.8
 03 11 2013  15 12  -20.9847 26077.9 -03475.3 -07.5908 26308.4
 03 11 2013  15 13  -20.9846 26077.6 -03475.5 -07.5913 26308.2
 03 11 2013  15 14  -20.9851 26077.7 -03475.8 -07.5920 26308.3
 03 11 2013  15 15  -20.9856 26077.7 -03476.1 -07.5926 26308.3
 03 11 2013  15 16  -20.9862 26077.8 -03476.4 -07.5932 26308.5
 03 11 2013  15 17  -20.9867 26077.7 -03476.5 -07.5936 26308.4
 03 11 2013  15 18  -20.9874 26077.6 -03476.7 -07.5939 26308.4
 03 11 2013  15 19  -20.9878 26077.5 -03476.8 -07.5943 26308.3
 03 11 2013  15 20  -20.9882 26077.4 -03477.0 -07.5946 26308.2
 03 11 2013  15 21  -20.9884 26077.2 -03477.0 -07.5948 26308.0
 03 11 2013  15 22  -20.9886 26076.9 -03477.1 -07.5950 26307.7
 03 11 2013  15 23  -20.9888 26076.8 -03477.2 -07.5953 26307.6
 03 11 2013  15 24  -20.9891 26076.7 -03477.4 -07.5957 26307.5
 03 11 2013  15 25  -20.9894 26076.5 -03477.5 -07.5960 26307.4
 03 11 2013  15 26  -20.9898 26076.3 -03477.7 -07.5964 26307.2
 03 11 2013  15 27  -20.9898 26076.0 -03477.7 -07.5966 26306.9
 03 11 2013  15 28  -20.9901 26075.8 -03477.9 -07.5970 26306.7
 03 11 2013  15 29  -20.9906 26075.6 -03478.0 -07.5973 26306.5
 03 11 2013  15 30  -20.9911 26075.6 -03478.2 -07.5978 26306.5
 03 11 2013  15 31  -20.9916 26075.2 -03478.3 -07.5981 26306.2
 03 11 2013  15 32  -20.9921 26075.1 -03478.4 -07.5984 26306.0
 03 11 2013  15 33  -20.9927 26075.0 -03478.6 -07.5989 26306.0
 03 11 2013  15 34  -20.9932 26075.0 -03478.8 -07.5992 26306.0
 03 11 2013  15 35  -20.9939 26074.9 -03478.9 -07.5995 26306.0
 03 11 2013  15 36  -20.9943 26074.8 -03479.0 -07.5997 26305.8
 03 11 2013  15 37  -20.9948 26074.7 -03479.1 -07.5999 26305.8
 03 11 2013  15 38  -20.9953 26074.6 -03479.1 -07.6001 26305.7
 03 11 2013  15 39  -20.9959 26074.7 -03479.3 -07.6003 26305.8
 03 11 2013  15 40  -20.9965 26074.6 -03479.3 -07.6005 26305.7
 03 11 2013  15 41  -20.9969 26074.3 -03479.3 -07.6004 26305.5
 03 11 2013  15 42  -20.9975 26074.2 -03479.3 -07.6006 26305.3
 03 11 2013  15 43  -20.9979 26074.2 -03479.4 -07.6007 26305.3
 03 11 2013  15 44  -20.9986 26074.0 -03479.4 -07.6008 26305.2
 03 11 2013  15 45  -20.9990 26073.8 -03479.4 -07.6009 26305.0
 03 11 2013  15 46  -20.9994 26073.6 -03479.4 -07.6010 26304.7
 03 11 2013  15 47  -20.9995 26073.3 -03479.4 -07.6010 26304.4
 03 11 2013  15 48  -20.9996 26073.1 -03479.5 -07.6012 26304.2
 03 11 2013  15 49  -20.9997 26072.9 -03479.5 -07.6014 26304.0
 03 11 2013  15 50  -21.0001 26072.7 -03479.6 -07.6016 26303.8
 03 11 2013  15 51  -21.0004 26072.4 -03479.6 -07.6017 26303.5
 03 11 2013  15 52  -21.0007 26072.2 -03479.6 -07.6018 26303.4
 03 11 2013  15 53  -21.0013 26072.1 -03479.7 -07.6021 26303.3
 03 11 2013  15 54  -21.0018 26072.0 -03479.8 -07.6023 26303.2
 03 11 2013  15 55  -21.0023 26071.8 -03479.9 -07.6024 26303.0
 03 11 2013  15 56  -21.0027 26071.7 -03479.9 -07.6025 26302.9
 03 11 2013  15 57  -21.0033 26071.4 -03479.9 -07.6027 26302.7
 03 11 2013  15 58  -21.0038 26071.2 -03479.9 -07.6027 26302.4
 03 11 2013  15 59  -21.0044 26071.1 -03480.0 -07.6029 26302.4
 03 11 2013  16 00  -21.0050 26071.1 -03480.0 -07.6030 26302.3
 03 11 2013  16 01  -21.0055 26071.0 -03480.0 -07.6031 26302.2
 03 11 2013  16 02  -21.0061 26070.9 -03480.1 -07.6032 26302.2
 03 11 2013  16 03  -21.0068 26071.1 -03480.2 -07.6034 26302.4
 03 11 2013  16 04  -21.0076 26071.3 -03480.2 -07.6034 26302.5
 03 11 2013  16 05  -21.0083 26071.3 -03480.2 -07.6033 26302.5
 03 11 2013  16 06  -21.0086 26071.4 -03480.1 -07.6031 26302.6
 03 11 2013  16 07  -21.0090 26071.4 -03480.0 -07.6029 26302.6
 03 11 2013  16 08  -21.0094 26071.4 -03480.0 -07.6028 26302.6
 03 11 2013  16 09  -21.0097 26071.1 -03479.7 -07.6024 26302.3
 03 11 2013  16 10  -21.0096 26070.9 -03479.6 -07.6021 26302.1
 03 11 2013  16 11  -21.0094 26070.7 -03479.4 -07.6017 26301.9
 03 11 2013  16 12  -21.0095 26070.4 -03479.2 -07.6014 26301.6
 03 11 2013  16 13  -21.0094 26070.0 -03479.0 -07.6010 26301.1
 03 11 2013  16 14  -21.0092 26069.5 -03478.7 -07.6007 26300.6
 03 11 2013  16 15  -21.0090 26068.8 -03478.4 -07.6002 26299.8
 03 11 2013  16 16  -21.0090 26068.4 -03478.3 -07.6001 26299.4
 03 11 2013  16 17  -21.0091 26068.0 -03478.2 -07.6000 26299.0
 03 11 2013  16 18  -21.0092 26067.8 -03478.2 -07.6000 26298.8
 03 11 2013  16 19  -21.0092 26067.6 -03478.1 -07.5999 26298.6
 03 11 2013  16 20  -21.0094 26067.3 -03478.1 -07.5999 26298.3
 03 11 2013  16 21  -21.0096 26067.0 -03478.1 -07.5999 26298.0
 03 11 2013  16 22  -21.0096 26066.8 -03478.0 -07.5998 26297.8
 03 11 2013  16 23  -21.0096 26066.5 -03478.0 -07.5998 26297.5
 03 11 2013  16 24  -21.0098 26066.1 -03477.9 -07.5998 26297.1
 03 11 2013  16 25  -21.0099 26065.8 -03477.8 -07.5997 26296.8
 03 11 2013  16 26  -21.0101 26065.7 -03477.8 -07.5998 26296.6
 03 11 2013  16 27  -21.0106 26066.1 -03477.9 -07.5998 26297.1
 03 11 2013  16 28  -21.0112 26066.1 -03477.6 -07.5993 26297.1
 03 11 2013  16 29  -21.0112 26066.0 -03477.4 -07.5987 26296.9
 03 11 2013  16 30  -21.0116 26065.9 -03477.1 -07.5982 26296.8
 03 11 2013  16 31  -21.0121 26065.7 -03476.9 -07.5978 26296.6
 03 11 2013  16 32  -21.0125 26065.5 -03476.8 -07.5976 26296.4
 03 11 2013  16 33  -21.0128 26065.2 -03476.6 -07.5973 26296.0
 03 11 2013  16 34  -21.0129 26065.0 -03476.5 -07.5971 26295.8
 03 11 2013  16 35  -21.0127 26064.7 -03476.3 -07.5968 26295.5
 03 11 2013  16 36  -21.0124 26064.4 -03476.2 -07.5966 26295.2
 03 11 2013  16 37  -21.0122 26064.1 -03476.1 -07.5965 26294.8
 03 11 2013  16 38  -21.0121 26063.9 -03476.0 -07.5964 26294.7
 03 11 2013  16 39  -21.0120 26063.7 -03475.9 -07.5963 26294.4
 03 11 2013  16 40  -21.0120 26063.5 -03475.8 -07.5961 26294.2
 03 11 2013  16 41  -21.0119 26063.3 -03475.7 -07.5959 26294.0
 03 11 2013  16 42  -21.0117 26063.0 -03475.6 -07.5958 26293.7
 03 11 2013  16 43  -21.0113 26062.7 -03475.5 -07.5956 26293.4
 03 11 2013  16 44  -21.0110 26062.5 -03475.3 -07.5953 26293.2
 03 11 2013  16 45  -21.0105 26062.2 -03475.2 -07.5952 26292.9
 03 11 2013  16 46  -21.0098 26061.8 -03475.0 -07.5949 26292.5
 03 11 2013  16 47  -21.0090 26061.5 -03475.0 -07.5949 26292.1
 03 11 2013  16 48  -21.0085 26061.1 -03475.0 -07.5949 26291.8
 03 11 2013  16 49  -21.0081 26061.0 -03475.0 -07.5951 26291.6
 03 11 2013  16 50  -21.0077 26060.7 -03475.0 -07.5952 26291.3
 03 11 2013  16 51  -21.0072 26060.5 -03475.0 -07.5953 26291.1
 03 11 2013  16 52  -21.0070 26060.2 -03475.1 -07.5955 26290.9
 03 11 2013  16 53  -21.0064 26060.0 -03475.2 -07.5957 26290.7
 03 11 2013  16 54  -21.0059 26059.8 -03475.3 -07.5960 26290.5
 03 11 2013  16 55  -21.0053 26059.6 -03475.3 -07.5962 26290.3
 03 11 2013  16 56  -21.0048 26059.5 -03475.5 -07.5965 26290.2
 03 11 2013  16 57  -21.0042 26059.4 -03475.6 -07.5968 26290.1
 03 11 2013  16 58  -21.0038 26059.3 -03475.7 -07.5971 26290.1
 03 11 2013  16 59  -21.0032 26059.1 -03475.7 -07.5972 26289.9
 03 11 2013  17 00  -21.0027 26058.9 -03475.8 -07.5974 26289.7
 03 11 2013  17 01  -21.0021 26058.7 -03475.9 -07.5977 26289.5
 03 11 2013  17 02  -21.0016 26058.4 -03476.0 -07.5980 26289.2
 03 11 2013  17 03  -21.0012 26058.2 -03476.2 -07.5985 26289.0
 03 11 2013  17 04  -21.0008 26057.9 -03476.4 -07.5989 26288.8
 03 11 2013  17 05  -21.0006 26057.8 -03476.6 -07.5993 26288.7
 03 11 2013  17 06  -21.0002 26057.6 -03476.7 -07.5997 26288.5
 03 11 2013  17 07  -20.9999 26057.4 -03476.9 -07.6001 26288.3
 03 11 2013  17 08  -20.9998 26057.2 -03477.0 -07.6005 26288.2
 03 11 2013  17 09  -20.9995 26056.9 -03477.2 -07.6009 26287.9
 03 11 2013  17 10  -20.9991 26056.6 -03477.3 -07.6012 26287.6
 03 11 2013  17 11  -20.9988 26056.4 -03477.4 -07.6016 26287.4
 03 11 2013  17 12  -20.9987 26056.1 -03477.6 -07.6021 26287.1
 03 11 2013  17 13  -20.9985 26055.9 -03477.8 -07.6025 26286.9
 03 11 2013  17 14  -20.9983 26055.6 -03477.9 -07.6029 26286.7
 03 11 2013  17 15  -20.9983 26055.4 -03478.1 -07.6033 26286.5
 03 11 2013  17 16  -20.9981 26055.2 -03478.2 -07.6037 26286.4
 03 11 2013  17 17  -20.9979 26055.0 -03478.4 -07.6040 26286.2
 03 11 2013  17 18  -20.9978 26055.0 -03478.5 -07.6044 26286.1
 03 11 2013  17 19  -20.9977 26054.7 -03478.6 -07.6046 26285.9
 03 11 2013  17 20  -20.9974 26054.6 -03478.7 -07.6048 26285.8
 03 11 2013  17 21  -20.9973 26054.4 -03478.8 -07.6051 26285.7
 03 11 2013  17 22  -20.9971 26054.4 -03478.9 -07.6053 26285.6
 03 11 2013  17 23  -20.9969 26054.2 -03478.9 -07.6055 26285.4
 03 11 2013  17 24  -20.9968 26054.2 -03479.0 -07.6057 26285.4
 03 11 2013  17 25  -20.9966 26054.0 -03479.0 -07.6058 26285.2
 03 11 2013  17 26  -20.9961 26053.8 -03479.0 -07.6058 26285.0
 03 11 2013  17 27  -20.9954 26053.6 -03479.0 -07.6059 26284.8
 03 11 2013  17 28  -20.9953 26053.5 -03479.1 -07.6061 26284.8
 03 11 2013  17 29  -20.9951 26053.4 -03479.2 -07.6063 26284.7
 03 11 2013  17 30  -20.9948 26053.3 -03479.3 -07.6065 26284.6
 03 11 2013  17 31  -20.9947 26053.2 -03479.3 -07.6066 26284.5
 03 11 2013  17 32  -20.9947 26053.2 -03479.4 -07.6068 26284.5
 03 11 2013  17 33  -20.9953 26053.4 -03479.5 -07.6071 26284.7
 03 11 2013  17 34  -20.9956 26053.5 -03479.6 -07.6072 26284.8
 03 11 2013  17 35  -20.9958 26053.4 -03479.6 -07.6071 26284.8
 03 11 2013  17 36  -20.9959 26053.2 -03479.5 -07.6070 26284.5
 03 11 2013  17 37  -20.9961 26052.9 -03479.4 -07.6070 26284.2
 03 11 2013  17 38  -20.9961 26052.6 -03479.4 -07.6069 26283.9
 03 11 2013  17 39  -20.9964 26052.4 -03479.4 -07.6070 26283.7
 03 11 2013  17 40  -20.9965 26052.2 -03479.4 -07.6071 26283.5
 03 11 2013  17 41  -20.9967 26052.1 -03479.5 -07.6073 26283.4
 03 11 2013  17 42  -20.9971 26051.9 -03479.6 -07.6075 26283.3
 03 11 2013  17 43  -20.9973 26051.7 -03479.6 -07.6076 26283.1
 03 11 2013  17 44  -20.9974 26051.5 -03479.6 -07.6077 26282.8
 03 11 2013  17 45  -20.9977 26051.4 -03479.7 -07.6079 26282.7
 03 11 2013  17 46  -20.9980 26051.3 -03479.8 -07.6082 26282.7
 03 11 2013  17 47  -20.9982 26051.1 -03479.8 -07.6083 26282.5
 03 11 2013  17 48  -20.9985 26050.7 -03479.8 -07.6084 26282.1
 03 11 2013  17 49  -20.9988 26050.5 -03479.8 -07.6085 26281.9
 03 11 2013  17 50  -20.9990 26050.3 -03479.9 -07.6087 26281.8
 03 11 2013  17 51  -20.9995 26050.1 -03479.9 -07.6089 26281.5
 03 11 2013  17 52  -20.9998 26050.0 -03480.0 -07.6090 26281.4
 03 11 2013  17 53  -21.0002 26049.8 -03480.0 -07.6091 26281.2
 03 11 2013  17 54  -21.0007 26049.6 -03480.0 -07.6092 26281.1
 03 11 2013  17 55  -21.0009 26049.3 -03480.0 -07.6091 26280.7
 03 11 2013  17 56  -21.0011 26049.1 -03479.9 -07.6091 26280.5
 03 11 2013  17 57  -21.0011 26048.8 -03479.9 -07.6092 26280.2
 03 11 2013  17 58  -21.0014 26048.5 -03480.0 -07.6094 26279.9
 03 11 2013  17 59  -21.0014 26048.2 -03479.9 -07.6094 26279.6
 03 11 2013  18 00  -21.0016 26048.0 -03480.0 -07.6095 26279.4
 03 11 2013  18 01  -21.0018 26047.9 -03480.1 -07.6098 26279.4
 03 11 2013  18 02  -21.0019 26047.9 -03480.2 -07.6101 26279.3
 03 11 2013  18 03  -21.0019 26047.7 -03480.3 -07.6102 26279.2
 03 11 2013  18 04  -21.0019 26047.6 -03480.3 -07.6104 26279.1
 03 11 2013  18 05  -21.0021 26047.4 -03480.4 -07.6106 26278.9
 03 11 2013  18 06  -21.0022 26047.1 -03480.3 -07.6106 26278.6
 03 11 2013  18 07  -21.0023 26047.0 -03480.3 -07.6106 26278.5
 03 11 2013  18 08  -21.0023 26046.6 -03480.3 -07.6106 26278.1
 03 11 2013  18 09  -21.0022 26046.2 -03480.2 -07.6106 26277.7
 03 11 2013  18 10  -21.0018 26045.9 -03480.2 -07.6106 26277.3
 03 11 2013  18 11  -21.0022 26045.7 -03480.3 -07.6109 26277.2
 03 11 2013  18 12  -21.0027 26045.7 -03480.4 -07.6112 26277.2
 03 11 2013  18 13  -21.0030 26045.6 -03480.5 -07.6113 26277.1
 03 11 2013  18 14  -21.0035 26045.4 -03480.5 -07.6114 26277.0
 03 11 2013  18 15  -21.0036 26045.3 -03480.5 -07.6115 26276.9
 03 11 2013  18 16  -21.0040 26045.4 -03480.6 -07.6118 26276.9
 03 11 2013  18 17  -21.0044 26045.3 -03480.7 -07.6119 26276.9
 03 11 2013  18 18  -21.0046 26045.3 -03480.8 -07.6121 26276.8
 03 11 2013  18 19  -21.0047 26045.2 -03480.8 -07.6122 26276.8
 03 11 2013  18 20  -21.0048 26045.1 -03480.9 -07.6125 26276.6
 03 11 2013  18 21  -21.0051 26045.0 -03481.1 -07.6128 26276.6
 03 11 2013  18 22  -21.0050 26044.9 -03481.2 -07.6130 26276.5
 03 11 2013  18 23  -21.0048 26044.7 -03481.3 -07.6133 26276.4
 03 11 2013  18 24  -21.0048 26044.8 -03481.5 -07.6137 26276.4
 03 11 2013  18 25  -21.0047 26044.7 -03481.6 -07.6140 26276.4
 03 11 2013  18 26  -21.0047 26044.6 -03481.7 -07.6144 26276.3
 03 11 2013  18 27  -21.0047 26044.6 -03481.9 -07.6146 26276.3
 03 11 2013  18 28  -21.0045 26044.6 -03482.0 -07.6150 26276.3
 03 11 2013  18 29  -21.0046 26044.5 -03482.3 -07.6155 26276.3
 03 11 2013  18 30  -21.0045 26044.5 -03482.4 -07.6159 26276.3
 03 11 2013  18 31  -21.0043 26044.5 -03482.6 -07.6162 26276.3
 03 11 2013  18 32  -21.0042 26044.4 -03482.7 -07.6166 26276.3
 03 11 2013  18 33  -21.0042 26044.4 -03482.9 -07.6169 26276.2
 03 11 2013  18 34  -21.0042 26044.3 -03483.0 -07.6172 26276.1
 03 11 2013  18 35  -21.0041 26044.2 -03483.1 -07.6175 26276.1
 03 11 2013  18 36  -21.0041 26044.2 -03483.3 -07.6178 26276.1
 03 11 2013  18 37  -21.0041 26044.3 -03483.5 -07.6182 26276.2
 03 11 2013  18 38  -21.0041 26044.2 -03483.6 -07.6185 26276.2
 03 11 2013  18 39  -21.0041 26044.1 -03483.7 -07.6187 26276.1
 03 11 2013  18 40  -21.0042 26044.1 -03483.8 -07.6189 26276.0
 03 11 2013  18 41  -21.0043 26044.0 -03483.9 -07.6191 26276.0
 03 11 2013  18 42  -21.0043 26043.9 -03483.9 -07.6193 26275.9
 03 11 2013  18 43  -21.0041 26043.9 -03484.0 -07.6195 26275.9
 03 11 2013  18 44  -21.0042 26043.7 -03484.1 -07.6197 26275.7
 03 11 2013  18 45  -21.0042 26043.6 -03484.2 -07.6199 26275.6
 03 11 2013  18 46  -21.0043 26043.6 -03484.3 -07.6202 26275.6
 03 11 2013  18 47  -21.0043 26043.5 -03484.4 -07.6204 26275.5
 03 11 2013  18 48  -21.0042 26043.3 -03484.5 -07.6207 26275.4
 03 11 2013  18 49  -21.0041 26043.2 -03484.6 -07.6209 26275.3
 03 11 2013  18 50  -21.0041 26043.0 -03484.7 -07.6211 26275.1
 03 11 2013  18 51  -21.0041 26042.8 -03484.8 -07.6215 26275.0
 03 11 2013  18 52  -21.0041 26042.8 -03484.9 -07.6218 26274.9
 03 11 2013  18 53  -21.0039 26042.6 -03485.0 -07.6220 26274.8
 03 11 2013  18 54  -21.0037 26042.5 -03485.2 -07.6225 26274.7
 03 11 2013  18 55  -21.0038 26042.5 -03485.4 -07.6228 26274.7
 03 11 2013  18 56  -21.0039 26042.4 -03485.5 -07.6232 26274.7
 03 11 2013  18 57  -21.0040 26042.4 -03485.7 -07.6236 26274.6
 03 11 2013  18 58  -21.0040 26042.4 -03485.9 -07.6240 26274.7
 03 11 2013  18 59  -21.0041 26042.1 -03485.9 -07.6241 26274.3
 03 11 2013  19 00  -21.0041 26041.9 -03486.1 -07.6245 26274.2
 03 11 2013  19 01  -21.0040 26041.7 -03486.2 -07.6248 26274.1
 03 11 2013  19 02  -21.0040 26041.6 -03486.3 -07.6250 26273.9
 03 11 2013  19 03  -21.0042 26041.4 -03486.4 -07.6253 26273.7
 03 11 2013  19 04  -21.0042 26041.3 -03486.5 -07.6256 26273.6
 03 11 2013  19 05  -21.0044 26040.9 -03486.6 -07.6259 26273.3
 03 11 2013  19 06  -21.0042 26040.5 -03486.6 -07.6260 26272.8
 03 11 2013  19 07  -21.0042 26040.4 -03486.8 -07.6264 26272.8
 03 11 2013  19 08  -21.0041 26040.4 -03486.9 -07.6268 26272.9
 03 11 2013  19 09  -21.0041 26040.3 -03487.1 -07.6272 26272.8
 03 11 2013  19 10  -21.0042 26040.1 -03487.3 -07.6276 26272.6
 03 11 2013  19 11  -21.0043 26040.0 -03487.4 -07.6278 26272.5
 03 11 2013  19 12  -21.0044 26039.9 -03487.5 -07.6282 26272.5
 03 11 2013  19 13  -21.0045 26039.7 -03487.6 -07.6284 26272.2
 03 11 2013  19 14  -21.0047 26039.5 -03487.8 -07.6288 26272.1
 03 11 2013  19 15  -21.0050 26039.3 -03487.9 -07.6291 26271.9
 03 11 2013  19 16  -21.0052 26039.2 -03488.0 -07.6295 26271.7
 03 11 2013  19 17  -21.0054 26038.9 -03488.1 -07.6298 26271.5
 03 11 2013  19 18  -21.0057 26038.7 -03488.2 -07.6301 26271.4
 03 11 2013  19 19  -21.0060 26038.4 -03488.3 -07.6304 26271.0
 03 11 2013  19 20  -21.0063 26038.2 -03488.4 -07.6307 26270.8
 03 11 2013  19 21  -21.0065 26037.9 -03488.6 -07.6310 26270.5
 03 11 2013  19 22  -21.0068 26037.3 -03488.6 -07.6313 26270.0
 03 11 2013  19 23  -21.0069 26037.2 -03488.8 -07.6318 26269.9
 03 11 2013  19 24  -21.0073 26037.0 -03489.0 -07.6323 26269.8
 03 11 2013  19 25  -21.0074 26036.6 -03489.1 -07.6326 26269.4
 03 11 2013  19 26  -21.0075 26036.4 -03489.3 -07.6331 26269.2
 03 11 2013  19 27  -21.0078 26036.2 -03489.6 -07.6337 26269.0
 03 11 2013  19 28  -21.0080 26036.0 -03489.7 -07.6341 26268.9
 03 11 2013  19 29  -21.0082 26035.9 -03490.0 -07.6348 26268.8
 03 11 2013  19 30  -21.0084 26035.8 -03490.3 -07.6353 26268.7
 03 11 2013  19 31  -21.0087 26035.7 -03490.5 -07.6358 26268.7
 03 11 2013  19 32  -21.0092 26035.6 -03490.7 -07.6364 26268.6
 03 11 2013  19 33  -21.0099 26035.7 -03491.0 -07.6370 26268.7
 03 11 2013  19 34  -21.0105 26035.6 -03491.2 -07.6375 26268.7
 03 11 2013  19 35  -21.0109 26035.5 -03491.5 -07.6380 26268.6
 03 11 2013  19 36  -21.0112 26035.4 -03491.6 -07.6383 26268.5
 03 11 2013  19 37  -21.0116 26035.2 -03491.8 -07.6388 26268.3
 03 11 2013  19 38  -21.0119 26035.1 -03492.0 -07.6393 26268.3
 03 11 2013  19 39  -21.0122 26035.1 -03492.2 -07.6397 26268.3
 03 11 2013  19 40  -21.0126 26035.0 -03492.4 -07.6402 26268.2
 03 11 2013  19 41  -21.0131 26035.1 -03492.7 -07.6407 26268.3
 03 11 2013  19 42  -21.0136 26034.9 -03492.7 -07.6410 26268.1
 03 11 2013  19 43  -21.0144 26034.9 -03493.0 -07.6414 26268.2
 03 11 2013  19 44  -21.0148 26034.5 -03493.0 -07.6415 26267.8
 03 11 2013  19 45  -21.0153 26034.3 -03493.0 -07.6418 26267.6
 03 11 2013  19 46  -21.0156 26034.2 -03493.2 -07.6422 26267.5
 03 11 2013  19 47  -21.0161 26033.9 -03493.3 -07.6424 26267.3
 03 11 2013  19 48  -21.0164 26034.0 -03493.5 -07.6428 26267.4
 03 11 2013  19 49  -21.0169 26034.1 -03493.7 -07.6433 26267.4
 03 11 2013  19 50  -21.0173 26034.0 -03493.9 -07.6437 26267.4
 03 11 2013  19 51  -21.0177 26033.9 -03494.0 -07.6441 26267.3
 03 11 2013  19 52  -21.0179 26033.9 -03494.3 -07.6445 26267.4
 03 11 2013  19 53  -21.0180 26034.0 -03494.4 -07.6449 26267.5
 03 11 2013  19 54  -21.0184 26033.9 -03494.6 -07.6453 26267.4
 03 11 2013  19 55  -21.0189 26033.9 -03494.8 -07.6457 26267.4
 03 11 2013  19 56  -21.0192 26033.7 -03494.9 -07.6459 26267.3
 03 11 2013  19 57  -21.0197 26033.5 -03494.9 -07.6461 26267.1
 03 11 2013  19 58  -21.0201 26033.3 -03495.0 -07.6462 26266.8
 03 11 2013  19 59  -21.0208 26033.0 -03495.1 -07.6465 26266.6
 03 11 2013  20 00  -21.0212 26032.8 -03495.1 -07.6467 26266.4
 03 11 2013  20 01  -21.0217 26032.6 -03495.2 -07.6469 26266.1
 03 11 2013  20 02  -21.0221 26032.3 -03495.2 -07.6470 26265.9
 03 11 2013  20 03  -21.0227 26032.0 -03495.2 -07.6472 26265.6
 03 11 2013  20 04  -21.0233 26032.0 -03495.4 -07.6475 26265.6
 03 11 2013  20 05  -21.0235 26031.6 -03495.4 -07.6476 26265.3
 03 11 2013  20 06  -21.0238 26031.3 -03495.4 -07.6477 26265.0
 03 11 2013  20 07  -21.0241 26031.2 -03495.5 -07.6480 26264.9
 03 11 2013  20 08  -21.0246 26031.1 -03495.6 -07.6483 26264.8
 03 11 2013  20 09  -21.0249 26031.0 -03495.7 -07.6485 26264.7
 03 11 2013  20 10  -21.0251 26031.0 -03495.8 -07.6488 26264.7
 03 11 2013  20 11  -21.0254 26030.9 -03495.9 -07.6489 26264.6
 03 11 2013  20 12  -21.0257 26030.9 -03496.0 -07.6492 26264.6
 03 11 2013  20 13  -21.0261 26030.8 -03496.0 -07.6492 26264.5
 03 11 2013  20 14  -21.0265 26030.6 -03496.0 -07.6493 26264.3
 03 11 2013  20 15  -21.0267 26030.5 -03496.0 -07.6494 26264.2
 03 11 2013  20 16  -21.0271 26030.4 -03496.1 -07.6495 26264.1
 03 11 2013  20 17  -21.0273 26030.4 -03496.1 -07.6495 26264.1
 03 11 2013  20 18  -21.0275 26030.2 -03496.1 -07.6496 26263.9
 03 11 2013  20 19  -21.0277 26030.1 -03496.1 -07.6496 26263.8
 03 11 2013  20 20  -21.0280 26030.1 -03496.1 -07.6497 26263.8
 03 11 2013  20 21  -21.0280 26030.0 -03496.1 -07.6496 26263.7
 03 11 2013  20 22  -21.0281 26029.9 -03496.1 -07.6496 26263.6
 03 11 2013  20 23  -21.0283 26029.8 -03496.1 -07.6496 26263.5
 03 11 2013  20 24  -21.0285 26029.7 -03496.1 -07.6497 26263.4
 03 11 2013  20 25  -21.0287 26029.7 -03496.1 -07.6498 26263.4
 03 11 2013  20 26  -21.0288 26029.7 -03496.1 -07.6498 26263.4
 03 11 2013  20 27  -21.0289 26029.7 -03496.2 -07.6498 26263.4
 03 11 2013  20 28  -21.0289 26029.7 -03496.1 -07.6498 26263.4
 03 11 2013  20 29  -21.0287 26029.7 -03496.1 -07.6498 26263.4
 03 11 2013  20 30  -21.0284 26029.7 -03496.1 -07.6498 26263.4
 03 11 2013  20 31  -21.0280 26029.8 -03496.2 -07.6500 26263.6
 03 11 2013  20 32  -21.0277 26029.9 -03496.3 -07.6500 26263.6
 03 11 2013  20 33  -21.0274 26030.0 -03496.3 -07.6501 26263.8
 03 11 2013  20 34  -21.0271 26030.0 -03496.3 -07.6502 26263.7
 03 11 2013  20 35  -21.0269 26030.0 -03496.4 -07.6502 26263.8
 03 11 2013  20 36  -21.0267 26030.1 -03496.4 -07.6503 26263.9
 03 11 2013  20 37  -21.0264 26030.1 -03496.4 -07.6503 26263.9
 03 11 2013  20 38  -21.0264 26029.9 -03496.3 -07.6500 26263.6
 03 11 2013  20 39  -21.0263 26030.0 -03496.3 -07.6500 26263.8
 03 11 2013  20 40  -21.0263 26030.0 -03496.3 -07.6500 26263.8
 03 11 2013  20 41  -21.0262 26030.1 -03496.3 -07.6500 26263.8
 03 11 2013  20 42  -21.0260 26030.3 -03496.3 -07.6499 26264.0
 03 11 2013  20 43  -21.0260 26029.9 -03496.1 -07.6496 26263.6
 03 11 2013  20 44  -21.0260 26029.5 -03495.9 -07.6492 26263.2
 03 11 2013  20 45  -21.0257 26029.4 -03495.7 -07.6490 26263.1
 03 11 2013  20 46  -21.0254 26029.6 -03495.8 -07.6491 26263.3
 03 11 2013  20 47  -21.0253 26029.3 -03495.7 -07.6489 26263.0
 03 11 2013  20 48  -21.0255 26029.1 -03495.5 -07.6487 26262.7
 03 11 2013  20 49  -21.0255 26029.1 -03495.6 -07.6488 26262.7
 03 11 2013  20 50  -21.0256 26029.0 -03495.6 -07.6488 26262.7
 03 11 2013  20 51  -21.0256 26029.1 -03495.7 -07.6491 26262.8
 03 11 2013  20 52  -21.0259 26029.2 -03495.8 -07.6493 26262.9
 03 11 2013  20 53  -21.0261 26029.1 -03496.0 -07.6496 26262.9
 03 11 2013  20 54  -21.0263 26029.3 -03496.2 -07.6500 26263.1
 03 11 2013  20 55  -21.0264 26029.5 -03496.4 -07.6504 26263.3
 03 11 2013  20 56  -21.0264 26029.7 -03496.6 -07.6508 26263.5
 03 11 2013  20 57  -21.0263 26029.8 -03496.7 -07.6510 26263.6
 03 11 2013  20 58  -21.0262 26029.8 -03496.8 -07.6513 26263.7
 03 11 2013  20 59  -21.0261 26029.8 -03496.9 -07.6514 26263.6
 03 11 2013  21 00  -21.0260 26029.8 -03497.0 -07.6515 26263.6
 03 11 2013  21 01  -21.0260 26029.6 -03496.9 -07.6515 26263.5
 03 11 2013  21 02  -21.0259 26029.4 -03496.8 -07.6514 26263.3
 03 11 2013  21 03  -21.0256 26029.3 -03496.8 -07.6513 26263.1
 03 11 2013  21 04  -21.0255 26028.8 -03496.6 -07.6511 26262.7
 03 11 2013  21 05  -21.0253 26028.7 -03496.6 -07.6510 26262.5
 03 11 2013  21 06  -21.0251 26028.5 -03496.5 -07.6509 26262.3
 03 11 2013  21 07  -21.0251 26028.2 -03496.4 -07.6508 26262.0
 03 11 2013  21 08  -21.0250 26028.0 -03496.4 -07.6507 26261.8
 03 11 2013  21 09  -21.0249 26027.9 -03496.3 -07.6507 26261.7
 03 11 2013  21 10  -21.0249 26027.9 -03496.4 -07.6509 26261.7
 03 11 2013  21 11  -21.0246 26027.8 -03496.4 -07.6509 26261.5
 03 11 2013  21 12  -21.0245 26027.5 -03496.3 -07.6509 26261.3
 03 11 2013  21 13  -21.0246 26027.3 -03496.4 -07.6509 26261.1
 03 11 2013  21 14  -21.0245 26027.3 -03496.4 -07.6511 26261.1
 03 11 2013  21 15  -21.0245 26027.0 -03496.4 -07.6512 26260.8
 03 11 2013  21 16  -21.0245 26026.8 -03496.4 -07.6513 26260.6
 03 11 2013  21 17  -21.0245 26026.7 -03496.5 -07.6514 26260.5
 03 11 2013  21 18  -21.0245 26026.5 -03496.5 -07.6515 26260.4
 03 11 2013  21 19  -21.0244 26026.5 -03496.6 -07.6517 26260.3
 03 11 2013  21 20  -21.0243 26026.5 -03496.7 -07.6520 26260.4
 03 11 2013  21 21  -21.0242 26026.5 -03496.9 -07.6523 26260.4
 03 11 2013  21 22  -21.0241 26026.5 -03497.0 -07.6525 26260.4
 03 11 2013  21 23  -21.0240 26026.6 -03497.1 -07.6528 26260.5
 03 11 2013  21 24  -21.0239 26026.5 -03497.2 -07.6529 26260.4
 03 11 2013  21 25  -21.0239 26026.4 -03497.2 -07.6531 26260.3
 03 11 2013  21 26  -21.0239 26026.4 -03497.3 -07.6533 26260.3
 03 11 2013  21 27  -21.0239 26026.3 -03497.4 -07.6535 26260.2
 03 11 2013  21 28  -21.0238 26026.2 -03497.5 -07.6536 26260.2
 03 11 2013  21 29  -21.0239 26026.2 -03497.5 -07.6538 26260.1
 03 11 2013  21 30  -21.0240 26026.0 -03497.5 -07.6538 26259.9
 03 11 2013  21 31  -21.0243 26025.7 -03497.4 -07.6538 26259.6
 03 11 2013  21 32  -21.0247 26025.3 -03497.4 -07.6538 26259.3
 03 11 2013  21 33  -21.0251 26025.0 -03497.4 -07.6538 26259.0
 03 11 2013  21 34  -21.0252 26024.9 -03497.3 -07.6538 26258.8
 03 11 2013  21 35  -21.0252 26024.8 -03497.4 -07.6540 26258.8
 03 11 2013  21 36  -21.0252 26024.6 -03497.4 -07.6540 26258.6
 03 11 2013  21 37  -21.0250 26024.5 -03497.4 -07.6541 26258.5
 03 11 2013  21 38  -21.0248 26024.4 -03497.4 -07.6541 26258.4
 03 11 2013  21 39  -21.0246 26024.3 -03497.5 -07.6543 26258.3
 03 11 2013  21 40  -21.0243 26024.2 -03497.5 -07.6544 26258.1
 03 11 2013  21 41  -21.0243 26023.9 -03497.5 -07.6544 26257.9
 03 11 2013  21 42  -21.0242 26023.7 -03497.5 -07.6544 26257.6
 03 11 2013  21 43  -21.0245 26023.4 -03497.5 -07.6545 26257.4
 03 11 2013  21 44  -21.0246 26023.3 -03497.5 -07.6546 26257.3
 03 11 2013  21 45  -21.0248 26023.1 -03497.6 -07.6548 26257.1
 03 11 2013  21 46  -21.0251 26022.9 -03497.5 -07.6548 26256.9
 03 11 2013  21 47  -21.0252 26022.9 -03497.6 -07.6550 26256.9
 03 11 2013  21 48  -21.0254 26022.7 -03497.7 -07.6551 26256.7
 03 11 2013  21 49  -21.0255 26022.6 -03497.7 -07.6552 26256.7
 03 11 2013  21 50  -21.0257 26022.5 -03497.7 -07.6553 26256.5
 03 11 2013  21 51  -21.0257 26022.3 -03497.7 -07.6553 26256.3
 03 11 2013  21 52  -21.0256 26022.0 -03497.6 -07.6552 26256.0
 03 11 2013  21 53  -21.0254 26021.8 -03497.6 -07.6552 26255.8
 03 11 2013  21 54  -21.0253 26021.7 -03497.6 -07.6552 26255.7
 03 11 2013  21 55  -21.0252 26021.5 -03497.6 -07.6554 26255.5
 03 11 2013  21 56  -21.0251 26021.3 -03497.6 -07.6554 26255.3
 03 11 2013  21 57  -21.0251 26021.0 -03497.6 -07.6554 26255.0
 03 11 2013  21 58  -21.0252 26020.8 -03497.5 -07.6554 26254.8
 03 11 2013  21 59  -21.0252 26020.6 -03497.5 -07.6554 26254.6
 03 11 2013  22 00  -21.0253 26020.5 -03497.5 -07.6555 26254.5
 03 11 2013  22 01  -21.0254 26020.3 -03497.5 -07.6555 26254.3
 03 11 2013  22 02  -21.0254 26020.2 -03497.5 -07.6555 26254.2
 03 11 2013  22 03  -21.0254 26020.1 -03497.6 -07.6558 26254.1
 03 11 2013  22 04  -21.0255 26020.0 -03497.7 -07.6559 26254.1
 03 11 2013  22 05  -21.0255 26020.0 -03497.7 -07.6560 26254.0
 03 11 2013  22 06  -21.0252 26020.0 -03497.8 -07.6561 26254.0
 03 11 2013  22 07  -21.0247 26020.0 -03497.8 -07.6562 26254.0
 03 11 2013  22 08  -21.0243 26020.0 -03497.8 -07.6562 26254.0
 03 11 2013  22 09  -21.0239 26019.8 -03497.8 -07.6563 26253.9
 03 11 2013  22 10  -21.0236 26019.8 -03497.9 -07.6564 26253.9
 03 11 2013  22 11  -21.0233 26019.6 -03497.9 -07.6565 26253.7
 03 11 2013  22 12  -21.0231 26019.4 -03497.8 -07.6565 26253.5
 03 11 2013  22 13  -21.0231 26019.1 -03497.8 -07.6565 26253.2
 03 11 2013  22 14  -21.0231 26018.9 -03497.7 -07.6564 26252.9
 03 11 2013  22 15  -21.0232 26018.6 -03497.7 -07.6565 26252.7
 03 11 2013  22 16  -21.0231 26018.4 -03497.7 -07.6565 26252.5
 03 11 2013  22 17  -21.0230 26018.2 -03497.7 -07.6565 26252.2
 03 11 2013  22 18  -21.0226 26018.1 -03497.7 -07.6566 26252.1
 03 11 2013  22 19  -21.0222 26017.9 -03497.7 -07.6566 26252.0
 03 11 2013  22 20  -21.0221 26017.9 -03497.8 -07.6568 26251.9
 03 11 2013  22 21  -21.0221 26017.7 -03497.8 -07.6569 26251.8
 03 11 2013  22 22  -21.0220 26017.5 -03497.8 -07.6568 26251.6
 03 11 2013  22 23  -21.0222 26017.5 -03497.8 -07.6570 26251.6
 03 11 2013  22 24  -21.0220 26017.3 -03497.8 -07.6571 26251.4
 03 11 2013  22 25  -21.0218 26017.2 -03497.8 -07.6571 26251.2
 03 11 2013  22 26  -21.0214 26017.0 -03497.9 -07.6572 26251.1
 03 11 2013  22 27  -21.0211 26017.0 -03497.9 -07.6573 26251.1
 03 11 2013  22 28  -21.0209 26017.0 -03498.0 -07.6575 26251.1
 03 11 2013  22 29  -21.0207 26017.0 -03498.1 -07.6577 26251.1
 03 11 2013  22 30  -21.0205 26016.9 -03498.1 -07.6578 26251.0
 03 11 2013  22 31  -21.0203 26016.8 -03498.2 -07.6579 26250.9
 03 11 2013  22 32  -21.0203 26016.7 -03498.2 -07.6580 26250.9
 03 11 2013  22 33  -21.0201 26016.7 -03498.3 -07.6582 26250.8
 03 11 2013  22 34  -21.0198 26016.5 -03498.3 -07.6582 26250.6
 03 11 2013  22 35  -21.0197 26016.4 -03498.3 -07.6583 26250.6
 03 11 2013  22 36  -21.0193 26016.4 -03498.3 -07.6584 26250.5
 03 11 2013  22 37  -21.0191 26016.3 -03498.4 -07.6585 26250.5
 03 11 2013  22 38  -21.0190 26016.3 -03498.5 -07.6587 26250.5
 03 11 2013  22 39  -21.0191 26016.4 -03498.6 -07.6590 26250.6
 03 11 2013  22 40  -21.0191 26016.3 -03498.6 -07.6591 26250.5
 03 11 2013  22 41  -21.0190 26016.4 -03498.7 -07.6592 26250.6
 03 11 2013  22 42  -21.0189 26016.3 -03498.7 -07.6593 26250.5
 03 11 2013  22 43  -21.0189 26016.3 -03498.8 -07.6594 26250.5
 03 11 2013  22 44  -21.0187 26016.2 -03498.8 -07.6594 26250.5
 03 11 2013  22 45  -21.0185 26016.3 -03498.8 -07.6595 26250.5
 03 11 2013  22 46  -21.0184 26016.3 -03498.9 -07.6597 26250.5
 03 11 2013  22 47  -21.0181 26016.2 -03498.9 -07.6597 26250.4
 03 11 2013  22 48  -21.0178 26016.2 -03499.0 -07.6598 26250.4
 03 11 2013  22 49  -21.0175 26016.3 -03499.1 -07.6600 26250.5
 03 11 2013  22 50  -21.0175 26016.3 -03499.1 -07.6601 26250.5
 03 11 2013  22 51  -21.0171 26016.3 -03499.2 -07.6602 26250.6
 03 11 2013  22 52  -21.0169 26016.3 -03499.2 -07.6604 26250.6
 03 11 2013  22 53  -21.0167 26016.3 -03499.3 -07.6604 26250.6
 03 11 2013  22 54  -21.0166 26016.4 -03499.4 -07.6607 26250.7
 03 11 2013  22 55  -21.0165 26016.4 -03499.4 -07.6607 26250.7
 03 11 2013  22 56  -21.0165 26016.5 -03499.5 -07.6609 26250.8
 03 11 2013  22 57  -21.0166 26016.6 -03499.6 -07.6611 26250.9
 03 11 2013  22 58  -21.0165 26016.6 -03499.6 -07.6612 26250.9
 03 11 2013  22 59  -21.0163 26016.6 -03499.7 -07.6612 26250.9
 03 11 2013  23 00  -21.0162 26016.7 -03499.7 -07.6614 26251.0
 03 11 2013  23 01  -21.0162 26016.6 -03499.7 -07.6614 26251.0
 03 11 2013  23 02  -21.0160 26016.7 -03499.8 -07.6615 26251.0
 03 11 2013  23 03  -21.0159 26016.7 -03499.8 -07.6616 26251.0
 03 11 2013  23 04  -21.0157 26016.7 -03499.9 -07.6617 26251.1
 03 11 2013  23 05  -21.0154 26016.7 -03499.9 -07.6618 26251.1
 03 11 2013  23 06  -21.0153 26016.7 -03500.0 -07.6619 26251.1
 03 11 2013  23 07  -21.0151 26016.8 -03500.0 -07.6619 26251.1
 03 11 2013  23 08  -21.0150 26016.8 -03500.1 -07.6621 26251.2
 03 11 2013  23 09  -21.0147 26016.7 -03500.1 -07.6621 26251.1
 03 11 2013  23 10  -21.0147 26016.8 -03500.2 -07.6623 26251.2
 03 11 2013  23 11  -21.0145 26016.8 -03500.3 -07.6624 26251.2
 03 11 2013  23 12  -21.0144 26016.8 -03500.3 -07.6625 26251.2
 03 11 2013  23 13  -21.0142 26016.8 -03500.4 -07.6627 26251.2
 03 11 2013  23 14  -21.0141 26016.8 -03500.4 -07.6628 26251.2
 03 11 2013  23 15  -21.0140 26016.8 -03500.4 -07.6628 26251.2
 03 11 2013  23 16  -21.0140 26016.7 -03500.5 -07.6629 26251.2
 03 11 2013  23 17  -21.0140 26016.7 -03500.5 -07.6630 26251.1
 03 11 2013  23 18  -21.0139 26016.6 -03500.5 -07.6631 26251.1
 03 11 2013  23 19  -21.0138 26016.6 -03500.6 -07.6632 26251.1
 03 11 2013  23 20  -21.0137 26016.6 -03500.6 -07.6633 26251.0
 03 11 2013  23 21  -21.0136 26016.6 -03500.7 -07.6634 26251.0
 03 11 2013  23 22  -21.0136 26016.5 -03500.7 -07.6635 26251.0
 03 11 2013  23 23  -21.0136 26016.6 -03500.8 -07.6636 26251.1
 03 11 2013  23 24  -21.0135 26016.6 -03500.9 -07.6638 26251.1
 03 11 2013  23 25  -21.0134 26016.6 -03500.9 -07.6639 26251.1
 03 11 2013  23 26  -21.0133 26016.7 -03501.0 -07.6641 26251.2
 03 11 2013  23 27  -21.0130 26016.6 -03501.0 -07.6642 26251.1
 03 11 2013  23 28  -21.0128 26016.6 -03501.1 -07.6643 26251.1
 03 11 2013  23 29  -21.0126 26016.6 -03501.1 -07.6644 26251.1
 03 11 2013  23 30  -21.0124 26016.6 -03501.2 -07.6645 26251.2
 03 11 2013  23 31  -21.0125 26016.6 -03501.3 -07.6647 26251.2
 03 11 2013  23 32  -21.0125 26016.6 -03501.4 -07.6649 26251.2
 03 11 2013  23 33  -21.0124 26016.6 -03501.4 -07.6650 26251.2
 03 11 2013  23 34  -21.0124 26016.6 -03501.5 -07.6652 26251.2
 03 11 2013  23 35  -21.0124 26016.6 -03501.5 -07.6652 26251.2
 03 11 2013  23 36  -21.0124 26016.6 -03501.6 -07.6653 26251.2
 03 11 2013  23 37  -21.0124 26016.6 -03501.6 -07.6654 26251.2
 03 11 2013  23 38  -21.0124 26016.6 -03501.7 -07.6656 26251.2
 03 11 2013  23 39  -21.0123 26016.7 -03501.7 -07.6656 26251.3
 03 11 2013  23 40  -21.0124 26016.7 -03501.8 -07.6657 26251.3
 03 11 2013  23 41  -21.0124 26016.8 -03501.8 -07.6658 26251.4
 03 11 2013  23 42  -21.0123 26016.8 -03501.9 -07.6659 26251.4
 03 11 2013  23 43  -21.0123 26016.8 -03501.9 -07.6661 26251.4
 03 11 2013  23 44  -21.0122 26016.8 -03501.9 -07.6661 26251.5
 03 11 2013  23 45  -21.0121 26016.8 -03502.0 -07.6661 26251.5
 03 11 2013  23 46  -21.0121 26016.8 -03502.0 -07.6662 26251.4
 03 11 2013  23 47  -21.0120 26016.8 -03502.0 -07.6663 26251.5
 03 11 2013  23 48  -21.0120 26016.9 -03502.0 -07.6663 26251.5
 03 11 2013  23 49  -21.0120 26016.8 -03502.1 -07.6663 26251.5
 03 11 2013  23 50  -21.0120 26016.8 -03502.1 -07.6664 26251.5
 03 11 2013  23 51  -21.0119 26016.8 -03502.1 -07.6664 26251.5
 03 11 2013  23 52  -21.0118 26016.9 -03502.1 -07.6665 26251.5
 03 11 2013  23 53  -21.0117 26016.9 -03502.2 -07.6665 26251.5
 03 11 2013  23 54  -21.0117 26016.9 -03502.2 -07.6666 26251.5
 03 11 2013  23 55  -21.0116 26016.9 -03502.2 -07.6666 26251.5
 03 11 2013  23 56  -21.0116 26016.9 -03502.2 -07.6667 26251.5
 03 11 2013  23 57  -21.0115 26016.9 -03502.3 -07.6667 26251.6
