SAO LUIS EMBRACE-03 <313> 1 Min. Reported data

 DD MM YYYY  HH MM   D(Deg)  H(nT)   Z(nT)   I(Deg)   F(nT)

 09 11 2013  00 00  -20.9927 26024.8 -03506.2 -07.6729 26259.9
 09 11 2013  00 01  -20.9924 26025.1 -03506.3 -07.6732 26260.2
 09 11 2013  00 02  -20.9924 26025.2 -03506.4 -07.6734 26260.3
 09 11 2013  00 03  -20.9923 26025.2 -03506.4 -07.6734 26260.3
 09 11 2013  00 04  -20.9923 26025.0 -03506.4 -07.6733 26260.2
 09 11 2013  00 05  -20.9922 26025.1 -03506.3 -07.6732 26260.2
 09 11 2013  00 06  -20.9917 26025.2 -03506.4 -07.6733 26260.4
 09 11 2013  00 07  -20.9915 26025.3 -03506.5 -07.6734 26260.5
 09 11 2013  00 08  -20.9914 26025.3 -03506.5 -07.6734 26260.5
 09 11 2013  00 09  -20.9914 26025.1 -03506.4 -07.6733 26260.3
 09 11 2013  00 10  -20.9915 26024.9 -03506.3 -07.6731 26260.0
 09 11 2013  00 11  -20.9918 26024.8 -03506.2 -07.6730 26259.9
 09 11 2013  00 12  -20.9919 26024.8 -03506.2 -07.6730 26259.9
 09 11 2013  00 13  -20.9920 26024.7 -03506.2 -07.6730 26259.8
 09 11 2013  00 14  -20.9921 26024.7 -03506.2 -07.6729 26259.8
 09 11 2013  00 15  -20.9923 26024.7 -03506.2 -07.6730 26259.8
 09 11 2013  00 16  -20.9924 26024.7 -03506.2 -07.6730 26259.8
 09 11 2013  00 17  -20.9924 26024.7 -03506.2 -07.6729 26259.8
 09 11 2013  00 18  -20.9924 26024.4 -03506.1 -07.6728 26259.6
 09 11 2013  00 19  -20.9923 26024.4 -03506.0 -07.6727 26259.5
 09 11 2013  00 20  -20.9920 26024.4 -03506.0 -07.6727 26259.5
 09 11 2013  00 21  -20.9917 26024.3 -03506.0 -07.6726 26259.4
 09 11 2013  00 22  -20.9913 26024.2 -03505.9 -07.6726 26259.3
 09 11 2013  00 23  -20.9913 26024.0 -03505.9 -07.6725 26259.1
 09 11 2013  00 24  -20.9910 26023.8 -03505.8 -07.6724 26258.9
 09 11 2013  00 25  -20.9907 26023.7 -03505.8 -07.6723 26258.8
 09 11 2013  00 26  -20.9906 26023.6 -03505.8 -07.6724 26258.7
 09 11 2013  00 27  -20.9910 26023.5 -03505.8 -07.6725 26258.6
 09 11 2013  00 28  -20.9906 26023.0 -03505.6 -07.6722 26258.1
 09 11 2013  00 29  -20.9905 26022.7 -03505.5 -07.6720 26257.8
 09 11 2013  00 30  -20.9905 26022.4 -03505.4 -07.6719 26257.4
 09 11 2013  00 31  -20.9903 26022.1 -03505.3 -07.6718 26257.1
 09 11 2013  00 32  -20.9900 26022.0 -03505.3 -07.6718 26257.0
 09 11 2013  00 33  -20.9903 26021.9 -03505.3 -07.6719 26256.9
 09 11 2013  00 34  -20.9903 26021.7 -03505.3 -07.6718 26256.7
 09 11 2013  00 35  -20.9902 26021.5 -03505.2 -07.6718 26256.5
 09 11 2013  00 36  -20.9903 26021.4 -03505.3 -07.6719 26256.5
 09 11 2013  00 37  -20.9905 26021.2 -03505.2 -07.6719 26256.3
 09 11 2013  00 38  -20.9907 26021.1 -03505.2 -07.6720 26256.1
 09 11 2013  00 39  -20.9909 26021.2 -03505.3 -07.6721 26256.2
 09 11 2013  00 40  -20.9911 26021.3 -03505.4 -07.6723 26256.3
 09 11 2013  00 41  -20.9913 26021.2 -03505.4 -07.6724 26256.3
 09 11 2013  00 42  -20.9915 26021.3 -03505.5 -07.6725 26256.3
 09 11 2013  00 43  -20.9915 26021.3 -03505.5 -07.6725 26256.3
 09 11 2013  00 44  -20.9913 26021.2 -03505.4 -07.6724 26256.3
 09 11 2013  00 45  -20.9914 26021.2 -03505.4 -07.6723 26256.3
 09 11 2013  00 46  -20.9915 26021.0 -03505.4 -07.6722 26256.1
 09 11 2013  00 47  -20.9916 26020.8 -03505.2 -07.6721 26255.8
 09 11 2013  00 48  -20.9918 26020.7 -03505.2 -07.6720 26255.7
 09 11 2013  00 49  -20.9920 26020.7 -03505.2 -07.6720 26255.7
 09 11 2013  00 50  -20.9924 26020.7 -03505.2 -07.6720 26255.8
 09 11 2013  00 51  -20.9927 26020.5 -03505.1 -07.6719 26255.5
 09 11 2013  00 52  -20.9928 26020.4 -03505.1 -07.6718 26255.4
 09 11 2013  00 53  -20.9931 26020.4 -03505.0 -07.6717 26255.4
 09 11 2013  00 54  -20.9934 26020.5 -03505.1 -07.6718 26255.5
 09 11 2013  00 55  -20.9936 26020.5 -03505.1 -07.6719 26255.5
 09 11 2013  00 56  -20.9938 26020.5 -03505.1 -07.6719 26255.5
 09 11 2013  00 57  -20.9941 26020.4 -03505.0 -07.6717 26255.4
 09 11 2013  00 58  -20.9943 26020.0 -03504.8 -07.6714 26255.0
 09 11 2013  00 59  -20.9944 26019.8 -03504.7 -07.6711 26254.8
 09 11 2013  01 00  -20.9947 26019.7 -03504.6 -07.6711 26254.6
 09 11 2013  01 01  -20.9948 26019.3 -03504.5 -07.6708 26254.3
 09 11 2013  01 02  -20.9949 26019.3 -03504.4 -07.6707 26254.2
 09 11 2013  01 03  -20.9954 26019.1 -03504.4 -07.6707 26254.1
 09 11 2013  01 04  -20.9957 26019.1 -03504.4 -07.6707 26254.0
 09 11 2013  01 05  -20.9959 26019.2 -03504.5 -07.6709 26254.2
 09 11 2013  01 06  -20.9965 26019.0 -03504.4 -07.6708 26254.0
 09 11 2013  01 07  -20.9966 26018.8 -03504.3 -07.6706 26253.7
 09 11 2013  01 08  -20.9972 26018.7 -03504.3 -07.6706 26253.6
 09 11 2013  01 09  -20.9977 26018.4 -03504.2 -07.6705 26253.3
 09 11 2013  01 10  -20.9980 26018.2 -03504.1 -07.6704 26253.1
 09 11 2013  01 11  -20.9987 26018.2 -03504.1 -07.6705 26253.1
 09 11 2013  01 12  -20.9990 26018.1 -03504.1 -07.6704 26253.0
 09 11 2013  01 13  -20.9990 26017.9 -03504.1 -07.6704 26252.8
 09 11 2013  01 14  -20.9988 26017.7 -03504.0 -07.6702 26252.6
 09 11 2013  01 15  -20.9985 26017.7 -03504.0 -07.6703 26252.6
 09 11 2013  01 16  -20.9981 26017.5 -03504.0 -07.6702 26252.4
 09 11 2013  01 17  -20.9980 26017.3 -03504.0 -07.6704 26252.2
 09 11 2013  01 18  -20.9980 26016.9 -03503.8 -07.6702 26251.8
 09 11 2013  01 19  -20.9980 26016.5 -03503.7 -07.6701 26251.4
 09 11 2013  01 20  -20.9982 26016.1 -03503.7 -07.6700 26251.0
 09 11 2013  01 21  -20.9984 26015.8 -03503.6 -07.6699 26250.7
 09 11 2013  01 22  -20.9985 26015.6 -03503.5 -07.6699 26250.4
 09 11 2013  01 23  -20.9986 26015.3 -03503.5 -07.6700 26250.2
 09 11 2013  01 24  -20.9986 26015.2 -03503.6 -07.6701 26250.0
 09 11 2013  01 25  -20.9989 26015.1 -03503.7 -07.6703 26250.0
 09 11 2013  01 26  -20.9989 26015.0 -03503.7 -07.6704 26249.8
 09 11 2013  01 27  -20.9987 26014.9 -03503.7 -07.6704 26249.8
 09 11 2013  01 28  -20.9985 26015.0 -03503.9 -07.6708 26249.9
 09 11 2013  01 29  -20.9981 26015.1 -03504.1 -07.6712 26250.1
 09 11 2013  01 30  -20.9980 26015.2 -03504.2 -07.6715 26250.2
 09 11 2013  01 31  -20.9980 26015.2 -03504.3 -07.6717 26250.2
 09 11 2013  01 32  -20.9981 26015.2 -03504.4 -07.6719 26250.1
 09 11 2013  01 33  -20.9983 26015.0 -03504.4 -07.6720 26250.0
 09 11 2013  01 34  -20.9983 26014.7 -03504.3 -07.6719 26249.7
 09 11 2013  01 35  -20.9982 26014.3 -03504.2 -07.6718 26249.3
 09 11 2013  01 36  -20.9978 26014.0 -03504.1 -07.6717 26249.0
 09 11 2013  01 37  -20.9975 26013.9 -03504.1 -07.6717 26248.9
 09 11 2013  01 38  -20.9976 26014.0 -03504.3 -07.6720 26249.0
 09 11 2013  01 39  -20.9978 26014.1 -03504.5 -07.6724 26249.1
 09 11 2013  01 40  -20.9981 26014.2 -03504.6 -07.6727 26249.2
 09 11 2013  01 41  -20.9984 26014.0 -03504.7 -07.6728 26249.1
 09 11 2013  01 42  -20.9983 26013.4 -03504.4 -07.6724 26248.4
 09 11 2013  01 43  -20.9977 26012.9 -03504.2 -07.6720 26247.8
 09 11 2013  01 44  -20.9975 26013.0 -03504.2 -07.6721 26247.9
 09 11 2013  01 45  -20.9983 26013.4 -03504.6 -07.6728 26248.4
 09 11 2013  01 46  -20.9984 26013.0 -03504.6 -07.6728 26248.0
 09 11 2013  01 47  -20.9985 26012.8 -03504.5 -07.6727 26247.8
 09 11 2013  01 48  -20.9987 26012.6 -03504.4 -07.6726 26247.6
 09 11 2013  01 49  -20.9988 26012.5 -03504.4 -07.6726 26247.5
 09 11 2013  01 50  -20.9986 26012.2 -03504.3 -07.6725 26247.2
 09 11 2013  01 51  -20.9984 26012.2 -03504.3 -07.6726 26247.2
 09 11 2013  01 52  -20.9979 26012.2 -03504.4 -07.6727 26247.1
 09 11 2013  01 53  -20.9971 26012.7 -03504.6 -07.6729 26247.7
 09 11 2013  01 54  -20.9974 26013.7 -03505.2 -07.6741 26248.8
 09 11 2013  01 55  -20.9976 26014.6 -03505.7 -07.6749 26249.7
 09 11 2013  01 56  -20.9977 26015.2 -03506.1 -07.6756 26250.4
 09 11 2013  01 57  -20.9969 26015.6 -03506.3 -07.6758 26250.9
 09 11 2013  01 58  -20.9964 26015.6 -03506.2 -07.6757 26250.8
 09 11 2013  01 59  -20.9962 26015.7 -03506.3 -07.6757 26250.9
 09 11 2013  02 00  -20.9960 26015.6 -03506.1 -07.6756 26250.8
 09 11 2013  02 01  -20.9958 26015.2 -03506.0 -07.6752 26250.4
 09 11 2013  02 02  -20.9961 26015.3 -03506.0 -07.6752 26250.5
 09 11 2013  02 03  -20.9965 26014.9 -03505.8 -07.6750 26250.0
 09 11 2013  02 04  -20.9964 26014.3 -03505.5 -07.6746 26249.4
 09 11 2013  02 05  -20.9964 26013.7 -03505.2 -07.6740 26248.8
 09 11 2013  02 06  -20.9967 26013.0 -03505.0 -07.6737 26248.1
 09 11 2013  02 07  -20.9971 26012.6 -03504.8 -07.6735 26247.6
 09 11 2013  02 08  -20.9978 26012.0 -03504.6 -07.6732 26247.0
 09 11 2013  02 09  -20.9984 26011.5 -03504.4 -07.6730 26246.5
 09 11 2013  02 10  -20.9990 26011.0 -03504.3 -07.6728 26246.0
 09 11 2013  02 11  -20.9995 26010.6 -03504.2 -07.6727 26245.5
 09 11 2013  02 12  -21.0002 26010.1 -03504.0 -07.6725 26245.0
 09 11 2013  02 13  -21.0011 26009.9 -03503.9 -07.6724 26244.8
 09 11 2013  02 14  -21.0028 26009.7 -03504.0 -07.6726 26244.7
 09 11 2013  02 15  -21.0034 26009.1 -03503.8 -07.6724 26244.1
 09 11 2013  02 16  -21.0045 26008.6 -03503.5 -07.6720 26243.5
 09 11 2013  02 17  -21.0052 26008.2 -03503.4 -07.6717 26243.1
 09 11 2013  02 18  -21.0065 26008.0 -03503.3 -07.6717 26242.8
 09 11 2013  02 19  -21.0074 26007.3 -03503.1 -07.6713 26242.2
 09 11 2013  02 20  -21.0074 26006.5 -03502.6 -07.6706 26241.3
 09 11 2013  02 21  -21.0075 26005.9 -03502.3 -07.6701 26240.6
 09 11 2013  02 22  -21.0081 26005.4 -03502.2 -07.6699 26240.2
 09 11 2013  02 23  -21.0086 26005.0 -03502.1 -07.6698 26239.8
 09 11 2013  02 24  -21.0090 26004.7 -03501.9 -07.6696 26239.5
 09 11 2013  02 25  -21.0092 26004.5 -03501.9 -07.6696 26239.2
 09 11 2013  02 26  -21.0093 26004.1 -03501.7 -07.6694 26238.8
 09 11 2013  02 27  -21.0091 26003.7 -03501.6 -07.6692 26238.4
 09 11 2013  02 28  -21.0089 26003.1 -03501.4 -07.6690 26237.8
 09 11 2013  02 29  -21.0085 26002.5 -03501.1 -07.6685 26237.1
 09 11 2013  02 30  -21.0080 26001.8 -03500.9 -07.6681 26236.4
 09 11 2013  02 31  -21.0079 26001.3 -03500.7 -07.6680 26235.9
 09 11 2013  02 32  -21.0085 26001.0 -03500.7 -07.6680 26235.6
 09 11 2013  02 33  -21.0091 26000.8 -03500.8 -07.6683 26235.5
 09 11 2013  02 34  -21.0091 26000.4 -03500.7 -07.6683 26235.1
 09 11 2013  02 35  -21.0090 26000.0 -03500.6 -07.6681 26234.6
 09 11 2013  02 36  -21.0088 25999.7 -03500.6 -07.6681 26234.3
 09 11 2013  02 37  -21.0092 25999.7 -03500.6 -07.6682 26234.3
 09 11 2013  02 38  -21.0095 25999.7 -03500.8 -07.6686 26234.4
 09 11 2013  02 39  -21.0103 26000.0 -03501.0 -07.6690 26234.7
 09 11 2013  02 40  -21.0114 26000.1 -03501.3 -07.6695 26234.8
 09 11 2013  02 41  -21.0118 26000.1 -03501.3 -07.6695 26234.8
 09 11 2013  02 42  -21.0118 25999.8 -03501.2 -07.6694 26234.4
 09 11 2013  02 43  -21.0121 25999.4 -03501.0 -07.6692 26234.1
 09 11 2013  02 44  -21.0125 25999.2 -03501.0 -07.6691 26233.8
 09 11 2013  02 45  -21.0128 25998.7 -03500.8 -07.6689 26233.4
 09 11 2013  02 46  -21.0127 25998.8 -03500.8 -07.6689 26233.4
 09 11 2013  02 47  -21.0130 25997.5 -03500.3 -07.6682 26232.1
 09 11 2013  02 48  -21.0129 25997.8 -03500.4 -07.6683 26232.4
 09 11 2013  02 49  -21.0132 25997.1 -03500.2 -07.6680 26231.6
 09 11 2013  02 50  -21.0127 25997.7 -03500.5 -07.6685 26232.3
 09 11 2013  02 51  -21.0130 25997.6 -03500.6 -07.6688 26232.2
 09 11 2013  02 52  -21.0129 25998.2 -03500.9 -07.6693 26232.9
 09 11 2013  02 53  -21.0127 25998.2 -03501.0 -07.6695 26232.8
 09 11 2013  02 54  -21.0119 25998.9 -03501.4 -07.6701 26233.6
 09 11 2013  02 55  -21.0116 25999.2 -03501.6 -07.6705 26234.0
 09 11 2013  02 56  -21.0117 25999.5 -03501.9 -07.6710 26234.3
 09 11 2013  02 57  -21.0112 25999.5 -03501.9 -07.6711 26234.3
 09 11 2013  02 58  -21.0107 25999.3 -03501.9 -07.6710 26234.1
 09 11 2013  02 59  -21.0097 25998.9 -03501.7 -07.6707 26233.7
 09 11 2013  03 00  -21.0097 25998.5 -03501.5 -07.6705 26233.3
 09 11 2013  03 01  -21.0103 25998.9 -03501.7 -07.6709 26233.6
 09 11 2013  03 02  -21.0114 26000.1 -03502.4 -07.6720 26234.9
 09 11 2013  03 03  -21.0121 26000.7 -03503.0 -07.6731 26235.7
 09 11 2013  03 04  -21.0105 26000.7 -03502.9 -07.6729 26235.6
 09 11 2013  03 05  -21.0098 25999.2 -03502.2 -07.6718 26234.0
 09 11 2013  03 06  -21.0100 25999.2 -03502.2 -07.6718 26234.0
 09 11 2013  03 07  -21.0108 25998.7 -03502.0 -07.6714 26233.5
 09 11 2013  03 08  -21.0121 25997.9 -03501.8 -07.6712 26232.7
 09 11 2013  03 09  -21.0120 25997.8 -03501.7 -07.6710 26232.6
 09 11 2013  03 10  -21.0109 25998.0 -03501.8 -07.6712 26232.7
 09 11 2013  03 11  -21.0109 25997.9 -03501.7 -07.6711 26232.6
 09 11 2013  03 12  -21.0120 25997.9 -03502.0 -07.6717 26232.7
 09 11 2013  03 13  -21.0123 25998.8 -03502.3 -07.6722 26233.6
 09 11 2013  03 14  -21.0135 25999.1 -03502.6 -07.6728 26233.9
 09 11 2013  03 15  -21.0143 25999.8 -03503.0 -07.6734 26234.8
 09 11 2013  03 16  -21.0158 26000.4 -03503.4 -07.6740 26235.4
 09 11 2013  03 17  -21.0167 26000.8 -03503.6 -07.6743 26235.8
 09 11 2013  03 18  -21.0172 26001.3 -03503.7 -07.6745 26236.3
 09 11 2013  03 19  -21.0177 26001.3 -03503.7 -07.6745 26236.3
 09 11 2013  03 20  -21.0170 26000.9 -03503.4 -07.6739 26235.9
 09 11 2013  03 21  -21.0168 25999.8 -03502.8 -07.6728 26234.6
 09 11 2013  03 22  -21.0161 25998.6 -03502.2 -07.6719 26233.4
 09 11 2013  03 23  -21.0159 25997.7 -03501.7 -07.6711 26232.5
 09 11 2013  03 24  -21.0162 25997.3 -03501.5 -07.6709 26232.0
 09 11 2013  03 25  -21.0165 25997.0 -03501.6 -07.6711 26231.8
 09 11 2013  03 26  -21.0163 25997.0 -03501.6 -07.6712 26231.8
 09 11 2013  03 27  -21.0163 25997.4 -03501.9 -07.6717 26232.2
 09 11 2013  03 28  -21.0163 25998.0 -03502.3 -07.6724 26232.8
 09 11 2013  03 29  -21.0163 25998.5 -03502.7 -07.6731 26233.4
 09 11 2013  03 30  -21.0163 25998.9 -03503.0 -07.6736 26233.8
 09 11 2013  03 31  -21.0163 25999.0 -03503.2 -07.6739 26234.0
 09 11 2013  03 32  -21.0159 25999.0 -03503.2 -07.6739 26233.9
 09 11 2013  03 33  -21.0160 25998.8 -03503.1 -07.6739 26233.7
 09 11 2013  03 34  -21.0162 25998.6 -03503.1 -07.6739 26233.5
 09 11 2013  03 35  -21.0166 25998.2 -03503.0 -07.6739 26233.2
 09 11 2013  03 36  -21.0171 25997.6 -03502.8 -07.6735 26232.5
 09 11 2013  03 37  -21.0179 25997.2 -03502.7 -07.6734 26232.1
 09 11 2013  03 38  -21.0182 25996.9 -03502.6 -07.6732 26231.8
 09 11 2013  03 39  -21.0184 25996.5 -03502.4 -07.6731 26231.4
 09 11 2013  03 40  -21.0191 25995.5 -03502.1 -07.6727 26230.4
 09 11 2013  03 41  -21.0213 25994.8 -03501.9 -07.6724 26229.7
 09 11 2013  03 42  -21.0238 25993.9 -03501.7 -07.6722 26228.7
 09 11 2013  03 43  -21.0258 25993.2 -03501.4 -07.6718 26228.0
 09 11 2013  03 44  -21.0275 25993.0 -03501.3 -07.6716 26227.7
 09 11 2013  03 45  -21.0280 25993.1 -03501.3 -07.6716 26227.9
 09 11 2013  03 46  -21.0286 25992.9 -03501.2 -07.6716 26227.6
 09 11 2013  03 47  -21.0291 25992.8 -03501.2 -07.6715 26227.5
 09 11 2013  03 48  -21.0288 25992.7 -03501.1 -07.6714 26227.4
 09 11 2013  03 49  -21.0284 25992.4 -03501.1 -07.6713 26227.1
 09 11 2013  03 50  -21.0281 25992.1 -03501.0 -07.6713 26226.8
 09 11 2013  03 51  -21.0280 25992.0 -03501.0 -07.6713 26226.7
 09 11 2013  03 52  -21.0280 25992.0 -03501.1 -07.6715 26226.8
 09 11 2013  03 53  -21.0281 25992.2 -03501.3 -07.6718 26227.0
 09 11 2013  03 54  -21.0281 25992.3 -03501.4 -07.6721 26227.1
 09 11 2013  03 55  -21.0286 25992.8 -03501.7 -07.6727 26227.6
 09 11 2013  03 56  -21.0283 25993.0 -03501.9 -07.6730 26227.9
 09 11 2013  03 57  -21.0276 25993.2 -03502.0 -07.6732 26228.0
 09 11 2013  03 58  -21.0275 25993.2 -03502.1 -07.6734 26228.1
 09 11 2013  03 59  -21.0276 25993.3 -03502.2 -07.6736 26228.2
 09 11 2013  04 00  -21.0270 25993.1 -03502.2 -07.6735 26228.0
 09 11 2013  04 01  -21.0276 25992.9 -03502.2 -07.6736 26227.8
 09 11 2013  04 02  -21.0283 25992.2 -03501.9 -07.6731 26227.0
 09 11 2013  04 03  -21.0293 25991.6 -03501.6 -07.6728 26226.4
 09 11 2013  04 04  -21.0309 25991.1 -03501.4 -07.6725 26225.9
 09 11 2013  04 05  -21.0320 25990.7 -03501.3 -07.6723 26225.5
 09 11 2013  04 06  -21.0331 25990.5 -03501.2 -07.6722 26225.3
 09 11 2013  04 07  -21.0339 25990.1 -03501.0 -07.6719 26224.8
 09 11 2013  04 08  -21.0342 25989.9 -03500.9 -07.6717 26224.7
 09 11 2013  04 09  -21.0342 25990.2 -03501.1 -07.6720 26225.0
 09 11 2013  04 10  -21.0336 25990.8 -03501.3 -07.6724 26225.6
 09 11 2013  04 11  -21.0336 25991.5 -03501.8 -07.6731 26226.3
 09 11 2013  04 12  -21.0337 25992.2 -03502.2 -07.6738 26227.1
 09 11 2013  04 13  -21.0338 25992.9 -03502.6 -07.6745 26227.8
 09 11 2013  04 14  -21.0339 25992.9 -03502.7 -07.6746 26227.9
 09 11 2013  04 15  -21.0339 25992.7 -03502.6 -07.6745 26227.7
 09 11 2013  04 16  -21.0345 25992.5 -03502.5 -07.6743 26227.4
 09 11 2013  04 17  -21.0352 25991.9 -03502.2 -07.6739 26226.8
 09 11 2013  04 18  -21.0355 25991.5 -03502.0 -07.6735 26226.4
 09 11 2013  04 19  -21.0357 25990.9 -03501.7 -07.6731 26225.7
 09 11 2013  04 20  -21.0362 25990.8 -03501.6 -07.6730 26225.6
 09 11 2013  04 21  -21.0359 25991.1 -03501.8 -07.6732 26226.0
 09 11 2013  04 22  -21.0358 25991.6 -03502.1 -07.6737 26226.5
 09 11 2013  04 23  -21.0352 25991.5 -03502.1 -07.6737 26226.4
 09 11 2013  04 24  -21.0344 25991.7 -03502.2 -07.6739 26226.6
 09 11 2013  04 25  -21.0349 25991.1 -03502.0 -07.6737 26225.9
 09 11 2013  04 26  -21.0360 25990.7 -03501.9 -07.6736 26225.6
 09 11 2013  04 27  -21.0371 25990.4 -03501.7 -07.6734 26225.3
 09 11 2013  04 28  -21.0381 25990.4 -03501.8 -07.6734 26225.3
 09 11 2013  04 29  -21.0388 25991.1 -03502.0 -07.6737 26225.9
 09 11 2013  04 30  -21.0397 25991.7 -03502.3 -07.6741 26226.6
 09 11 2013  04 31  -21.0397 25991.9 -03502.3 -07.6742 26226.8
 09 11 2013  04 32  -21.0395 25991.7 -03502.2 -07.6739 26226.6
 09 11 2013  04 33  -21.0381 25992.5 -03502.4 -07.6741 26227.5
 09 11 2013  04 34  -21.0363 25992.6 -03502.4 -07.6740 26227.5
 09 11 2013  04 35  -21.0349 25993.2 -03502.6 -07.6744 26228.1
 09 11 2013  04 36  -21.0335 25993.1 -03502.6 -07.6745 26228.0
 09 11 2013  04 37  -21.0317 25993.2 -03502.7 -07.6745 26228.2
 09 11 2013  04 38  -21.0299 25993.2 -03502.7 -07.6747 26228.2
 09 11 2013  04 39  -21.0277 25992.6 -03502.5 -07.6743 26227.5
 09 11 2013  04 40  -21.0246 25991.3 -03501.9 -07.6734 26226.2
 09 11 2013  04 41  -21.0218 25991.2 -03501.8 -07.6733 26226.0
 09 11 2013  04 42  -21.0208 25990.5 -03501.8 -07.6734 26225.4
 09 11 2013  04 43  -21.0198 25990.2 -03501.9 -07.6737 26225.1
 09 11 2013  04 44  -21.0190 25989.5 -03501.8 -07.6737 26224.4
 09 11 2013  04 45  -21.0179 25989.2 -03501.8 -07.6738 26224.1
 09 11 2013  04 46  -21.0176 25989.3 -03502.0 -07.6742 26224.2
 09 11 2013  04 47  -21.0175 25990.1 -03502.6 -07.6752 26225.0
 09 11 2013  04 48  -21.0171 25990.6 -03503.1 -07.6761 26225.7
 09 11 2013  04 49  -21.0170 25991.0 -03503.4 -07.6768 26226.1
 09 11 2013  04 50  -21.0168 25991.5 -03503.8 -07.6774 26226.6
 09 11 2013  04 51  -21.0173 25992.2 -03504.2 -07.6782 26227.4
 09 11 2013  04 52  -21.0180 25993.1 -03504.8 -07.6791 26228.3
 09 11 2013  04 53  -21.0184 25993.9 -03505.1 -07.6797 26229.1
 09 11 2013  04 54  -21.0187 25994.4 -03505.3 -07.6800 26229.7
 09 11 2013  04 55  -21.0184 25994.7 -03505.4 -07.6801 26230.0
 09 11 2013  04 56  -21.0172 25995.0 -03505.4 -07.6800 26230.3
 09 11 2013  04 57  -21.0153 25995.0 -03505.3 -07.6798 26230.3
 09 11 2013  04 58  -21.0141 25995.4 -03505.5 -07.6800 26230.7
 09 11 2013  04 59  -21.0140 25995.5 -03505.6 -07.6801 26230.8
 09 11 2013  05 00  -21.0144 25995.9 -03505.8 -07.6806 26231.3
 09 11 2013  05 01  -21.0150 25996.6 -03506.2 -07.6811 26232.0
 09 11 2013  05 02  -21.0152 25997.1 -03506.4 -07.6816 26232.5
 09 11 2013  05 03  -21.0154 25997.0 -03506.4 -07.6815 26232.4
 09 11 2013  05 04  -21.0155 25996.9 -03506.2 -07.6811 26232.3
 09 11 2013  05 05  -21.0157 25996.5 -03506.0 -07.6808 26231.9
 09 11 2013  05 06  -21.0155 25996.1 -03505.7 -07.6803 26231.4
 09 11 2013  05 07  -21.0155 25995.8 -03505.5 -07.6798 26231.1
 09 11 2013  05 08  -21.0152 25996.0 -03505.5 -07.6799 26231.3
 09 11 2013  05 09  -21.0149 25996.3 -03505.6 -07.6800 26231.6
 09 11 2013  05 10  -21.0145 25996.5 -03505.7 -07.6802 26231.8
 09 11 2013  05 11  -21.0143 25996.7 -03505.8 -07.6804 26232.1
 09 11 2013  05 12  -21.0143 25997.1 -03506.0 -07.6807 26232.4
 09 11 2013  05 13  -21.0144 25997.3 -03506.2 -07.6810 26232.7
 09 11 2013  05 14  -21.0148 25997.6 -03506.3 -07.6812 26233.0
 09 11 2013  05 15  -21.0155 25997.9 -03506.5 -07.6815 26233.3
 09 11 2013  05 16  -21.0161 25998.2 -03506.7 -07.6817 26233.6
 09 11 2013  05 17  -21.0167 25998.2 -03506.7 -07.6818 26233.7
 09 11 2013  05 18  -21.0174 25998.3 -03506.7 -07.6818 26233.8
 09 11 2013  05 19  -21.0179 25998.5 -03506.7 -07.6817 26233.9
 09 11 2013  05 20  -21.0179 25998.7 -03506.6 -07.6815 26234.1
 09 11 2013  05 21  -21.0182 25998.9 -03506.7 -07.6816 26234.4
 09 11 2013  05 22  -21.0186 25999.7 -03507.0 -07.6821 26235.1
 09 11 2013  05 23  -21.0187 26000.7 -03507.5 -07.6828 26236.2
 09 11 2013  05 24  -21.0187 26001.2 -03507.8 -07.6833 26236.7
 09 11 2013  05 25  -21.0192 26001.5 -03507.9 -07.6834 26237.1
 09 11 2013  05 26  -21.0203 26001.7 -03508.0 -07.6836 26237.3
 09 11 2013  05 27  -21.0215 26002.0 -03508.0 -07.6836 26237.6
 09 11 2013  05 28  -21.0224 26002.2 -03508.0 -07.6835 26237.8
 09 11 2013  05 29  -21.0234 26002.5 -03508.0 -07.6834 26238.0
 09 11 2013  05 30  -21.0242 26002.8 -03508.0 -07.6834 26238.4
 09 11 2013  05 31  -21.0250 26003.3 -03508.2 -07.6835 26238.9
 09 11 2013  05 32  -21.0257 26003.5 -03508.1 -07.6834 26239.1
 09 11 2013  05 33  -21.0268 26003.8 -03508.2 -07.6833 26239.4
 09 11 2013  05 34  -21.0275 26004.5 -03508.3 -07.6835 26240.1
 09 11 2013  05 35  -21.0280 26005.1 -03508.6 -07.6838 26240.8
 09 11 2013  05 36  -21.0280 26005.6 -03508.7 -07.6839 26241.3
 09 11 2013  05 37  -21.0281 26005.9 -03508.7 -07.6838 26241.5
 09 11 2013  05 38  -21.0276 26006.0 -03508.6 -07.6836 26241.6
 09 11 2013  05 39  -21.0273 26005.8 -03508.4 -07.6832 26241.4
 09 11 2013  05 40  -21.0277 26005.4 -03508.0 -07.6826 26240.9
 09 11 2013  05 41  -21.0282 26005.1 -03507.8 -07.6821 26240.6
 09 11 2013  05 42  -21.0284 26004.9 -03507.6 -07.6818 26240.4
 09 11 2013  05 43  -21.0286 26004.6 -03507.3 -07.6812 26240.0
 09 11 2013  05 44  -21.0291 26004.2 -03507.0 -07.6808 26239.7
 09 11 2013  05 45  -21.0291 26004.4 -03507.0 -07.6806 26239.8
 09 11 2013  05 46  -21.0294 26004.8 -03507.1 -07.6807 26240.2
 09 11 2013  05 47  -21.0298 26005.1 -03507.2 -07.6810 26240.6
 09 11 2013  05 48  -21.0302 26004.7 -03507.0 -07.6806 26240.1
 09 11 2013  05 49  -21.0316 26003.5 -03506.5 -07.6798 26238.8
 09 11 2013  05 50  -21.0336 26001.8 -03505.6 -07.6784 26237.1
 09 11 2013  05 51  -21.0353 26000.4 -03504.7 -07.6768 26235.5
 09 11 2013  05 52  -21.0368 25998.9 -03503.8 -07.6753 26234.0
 09 11 2013  05 53  -21.0379 25997.5 -03502.9 -07.6739 26232.4
 09 11 2013  05 54  -21.0388 25996.7 -03502.4 -07.6729 26231.5
 09 11 2013  05 55  -21.0395 25996.5 -03502.2 -07.6726 26231.3
 09 11 2013  05 56  -21.0400 25996.7 -03502.2 -07.6726 26231.5
 09 11 2013  05 57  -21.0404 25997.0 -03502.4 -07.6729 26231.9
 09 11 2013  05 58  -21.0404 25997.5 -03502.7 -07.6733 26232.4
 09 11 2013  05 59  -21.0405 25998.0 -03503.0 -07.6738 26232.9
 09 11 2013  06 00  -21.0404 25998.1 -03503.0 -07.6739 26233.0
 09 11 2013  06 01  -21.0410 25997.3 -03502.7 -07.6735 26232.2
 09 11 2013  06 02  -21.0430 25996.2 -03502.1 -07.6725 26231.1
 09 11 2013  06 03  -21.0459 25995.8 -03501.8 -07.6720 26230.6
 09 11 2013  06 04  -21.0490 25995.0 -03501.4 -07.6712 26229.8
 09 11 2013  06 05  -21.0512 25994.7 -03501.0 -07.6706 26229.4
 09 11 2013  06 06  -21.0532 25994.2 -03500.7 -07.6700 26228.9
 09 11 2013  06 07  -21.0547 25994.3 -03500.6 -07.6698 26228.9
 09 11 2013  06 08  -21.0560 25994.6 -03500.7 -07.6699 26229.3
 09 11 2013  06 09  -21.0574 25994.8 -03500.8 -07.6699 26229.4
 09 11 2013  06 10  -21.0585 25995.3 -03500.9 -07.6701 26230.0
 09 11 2013  06 11  -21.0591 25996.2 -03501.3 -07.6706 26230.9
 09 11 2013  06 12  -21.0593 25996.8 -03501.5 -07.6710 26231.6
 09 11 2013  06 13  -21.0599 25996.8 -03501.5 -07.6711 26231.6
 09 11 2013  06 14  -21.0603 25997.0 -03501.5 -07.6709 26231.7
 09 11 2013  06 15  -21.0608 25996.9 -03501.4 -07.6707 26231.6
 09 11 2013  06 16  -21.0608 25996.1 -03500.9 -07.6699 26230.8
 09 11 2013  06 17  -21.0607 25995.4 -03500.4 -07.6689 26230.0
 09 11 2013  06 18  -21.0608 25995.1 -03500.1 -07.6684 26229.7
 09 11 2013  06 19  -21.0602 25995.0 -03499.9 -07.6681 26229.5
 09 11 2013  06 20  -21.0600 25994.7 -03499.8 -07.6679 26229.3
 09 11 2013  06 21  -21.0593 25994.7 -03499.8 -07.6678 26229.2
 09 11 2013  06 22  -21.0584 25994.8 -03499.9 -07.6680 26229.4
 09 11 2013  06 23  -21.0577 25995.0 -03500.0 -07.6683 26229.5
 09 11 2013  06 24  -21.0568 25995.3 -03500.2 -07.6686 26229.9
 09 11 2013  06 25  -21.0555 25995.7 -03500.5 -07.6692 26230.3
 09 11 2013  06 26  -21.0543 25995.5 -03500.5 -07.6693 26230.1
 09 11 2013  06 27  -21.0537 25994.8 -03500.3 -07.6690 26229.5
 09 11 2013  06 28  -21.0540 25994.6 -03500.2 -07.6688 26229.2
 09 11 2013  06 29  -21.0542 25994.7 -03500.3 -07.6691 26229.3
 09 11 2013  06 30  -21.0538 25995.1 -03500.6 -07.6694 26229.8
 09 11 2013  06 31  -21.0535 25995.6 -03500.9 -07.6699 26230.3
 09 11 2013  06 32  -21.0530 25995.9 -03501.1 -07.6703 26230.6
 09 11 2013  06 33  -21.0531 25996.0 -03501.3 -07.6707 26230.7
 09 11 2013  06 34  -21.0534 25995.7 -03501.2 -07.6705 26230.4
 09 11 2013  06 35  -21.0535 25995.9 -03501.2 -07.6707 26230.6
 09 11 2013  06 36  -21.0533 25996.1 -03501.4 -07.6709 26230.9
 09 11 2013  06 37  -21.0537 25996.6 -03501.7 -07.6713 26231.4
 09 11 2013  06 38  -21.0540 25997.0 -03501.9 -07.6718 26231.8
 09 11 2013  06 39  -21.0539 25997.5 -03502.2 -07.6722 26232.4
 09 11 2013  06 40  -21.0539 25997.1 -03502.0 -07.6719 26231.9
 09 11 2013  06 41  -21.0544 25996.2 -03501.5 -07.6711 26231.0
 09 11 2013  06 42  -21.0551 25995.6 -03501.1 -07.6706 26230.3
 09 11 2013  06 43  -21.0558 25995.3 -03501.0 -07.6703 26229.9
 09 11 2013  06 44  -21.0561 25995.1 -03500.9 -07.6701 26229.8
 09 11 2013  06 45  -21.0562 25994.8 -03500.7 -07.6698 26229.4
 09 11 2013  06 46  -21.0565 25994.3 -03500.6 -07.6697 26229.0
 09 11 2013  06 47  -21.0568 25993.9 -03500.3 -07.6692 26228.5
 09 11 2013  06 48  -21.0564 25994.0 -03500.3 -07.6692 26228.6
 09 11 2013  06 49  -21.0553 25994.3 -03500.5 -07.6695 26229.0
 09 11 2013  06 50  -21.0546 25993.9 -03500.4 -07.6693 26228.5
 09 11 2013  06 51  -21.0548 25993.5 -03500.3 -07.6692 26228.2
 09 11 2013  06 52  -21.0549 25993.4 -03500.3 -07.6694 26228.1
 09 11 2013  06 53  -21.0547 25993.3 -03500.4 -07.6696 26227.9
 09 11 2013  06 54  -21.0545 25992.7 -03500.2 -07.6692 26227.3
 09 11 2013  06 55  -21.0546 25992.4 -03500.1 -07.6691 26227.0
 09 11 2013  06 56  -21.0539 25993.8 -03500.7 -07.6701 26228.4
 09 11 2013  06 57  -21.0526 25995.3 -03501.6 -07.6717 26230.1
 09 11 2013  06 58  -21.0511 25995.5 -03501.9 -07.6722 26230.3
 09 11 2013  06 59  -21.0497 25995.0 -03501.7 -07.6720 26229.8
 09 11 2013  07 00  -21.0482 25994.2 -03501.4 -07.6715 26229.0
 09 11 2013  07 01  -21.0470 25993.3 -03501.0 -07.6708 26228.0
 09 11 2013  07 02  -21.0463 25992.7 -03500.7 -07.6705 26227.4
 09 11 2013  07 03  -21.0459 25992.2 -03500.7 -07.6705 26226.9
 09 11 2013  07 04  -21.0461 25991.5 -03500.5 -07.6703 26226.1
 09 11 2013  07 05  -21.0461 25990.5 -03500.1 -07.6698 26225.1
 09 11 2013  07 06  -21.0469 25989.2 -03499.6 -07.6691 26223.8
 09 11 2013  07 07  -21.0478 25988.0 -03499.1 -07.6684 26222.5
 09 11 2013  07 08  -21.0488 25986.9 -03498.6 -07.6677 26221.3
 09 11 2013  07 09  -21.0497 25986.7 -03498.6 -07.6676 26221.2
 09 11 2013  07 10  -21.0497 25987.0 -03498.8 -07.6679 26221.5
 09 11 2013  07 11  -21.0491 25988.1 -03499.3 -07.6688 26222.6
 09 11 2013  07 12  -21.0498 25988.6 -03499.8 -07.6696 26223.2
 09 11 2013  07 13  -21.0517 25989.3 -03500.3 -07.6705 26223.9
 09 11 2013  07 14  -21.0537 25989.9 -03500.6 -07.6710 26224.6
 09 11 2013  07 15  -21.0552 25990.5 -03500.8 -07.6713 26225.2
 09 11 2013  07 16  -21.0556 25991.6 -03501.2 -07.6719 26226.3
 09 11 2013  07 17  -21.0557 25992.3 -03501.5 -07.6723 26227.1
 09 11 2013  07 18  -21.0554 25991.8 -03501.3 -07.6719 26226.6
 09 11 2013  07 19  -21.0551 25991.0 -03500.8 -07.6710 26225.7
 09 11 2013  07 20  -21.0549 25990.3 -03500.2 -07.6701 26225.0
 09 11 2013  07 21  -21.0546 25989.8 -03499.9 -07.6696 26224.4
 09 11 2013  07 22  -21.0541 25989.2 -03499.6 -07.6691 26223.7
 09 11 2013  07 23  -21.0535 25988.6 -03499.4 -07.6689 26223.2
 09 11 2013  07 24  -21.0532 25988.1 -03499.4 -07.6689 26222.7
 09 11 2013  07 25  -21.0533 25987.7 -03499.3 -07.6688 26222.2
 09 11 2013  07 26  -21.0537 25987.4 -03499.2 -07.6688 26221.9
 09 11 2013  07 27  -21.0540 25987.4 -03499.4 -07.6691 26221.9
 09 11 2013  07 28  -21.0535 25987.4 -03499.5 -07.6693 26221.9
 09 11 2013  07 29  -21.0529 25987.3 -03499.6 -07.6696 26221.9
 09 11 2013  07 30  -21.0527 25987.2 -03499.7 -07.6699 26221.8
 09 11 2013  07 31  -21.0530 25987.1 -03499.9 -07.6702 26221.7
 09 11 2013  07 32  -21.0525 25987.1 -03500.0 -07.6705 26221.7
 09 11 2013  07 33  -21.0520 25987.1 -03500.1 -07.6709 26221.7
 09 11 2013  07 34  -21.0517 25987.1 -03500.4 -07.6714 26221.8
 09 11 2013  07 35  -21.0517 25987.3 -03500.7 -07.6719 26222.0
 09 11 2013  07 36  -21.0519 25987.6 -03501.0 -07.6727 26222.4
 09 11 2013  07 37  -21.0527 25987.3 -03501.1 -07.6730 26222.1
 09 11 2013  07 38  -21.0535 25987.0 -03501.1 -07.6729 26221.8
 09 11 2013  07 39  -21.0543 25987.1 -03501.2 -07.6731 26221.9
 09 11 2013  07 40  -21.0548 25987.5 -03501.4 -07.6734 26222.3
 09 11 2013  07 41  -21.0552 25987.8 -03501.6 -07.6737 26222.6
 09 11 2013  07 42  -21.0555 25987.9 -03501.6 -07.6738 26222.7
 09 11 2013  07 43  -21.0556 25987.7 -03501.5 -07.6737 26222.5
 09 11 2013  07 44  -21.0555 25987.6 -03501.5 -07.6736 26222.4
 09 11 2013  07 45  -21.0553 25987.5 -03501.4 -07.6735 26222.3
 09 11 2013  07 46  -21.0556 25986.9 -03501.2 -07.6733 26221.7
 09 11 2013  07 47  -21.0558 25986.5 -03501.0 -07.6730 26221.3
 09 11 2013  07 48  -21.0559 25986.7 -03501.1 -07.6730 26221.5
 09 11 2013  07 49  -21.0561 25987.1 -03501.3 -07.6734 26221.9
 09 11 2013  07 50  -21.0566 25987.6 -03501.5 -07.6738 26222.4
 09 11 2013  07 51  -21.0572 25988.1 -03501.8 -07.6741 26223.0
 09 11 2013  07 52  -21.0574 25988.3 -03501.9 -07.6743 26223.2
 09 11 2013  07 53  -21.0575 25988.5 -03501.9 -07.6743 26223.4
 09 11 2013  07 54  -21.0578 25988.8 -03502.0 -07.6744 26223.6
 09 11 2013  07 55  -21.0588 25989.1 -03502.1 -07.6746 26224.0
 09 11 2013  07 56  -21.0593 25989.1 -03502.1 -07.6745 26224.0
 09 11 2013  07 57  -21.0594 25988.7 -03501.8 -07.6740 26223.5
 09 11 2013  07 58  -21.0593 25988.3 -03501.6 -07.6737 26223.2
 09 11 2013  07 59  -21.0595 25988.3 -03501.5 -07.6735 26223.1
 09 11 2013  08 00  -21.0591 25988.4 -03501.6 -07.6736 26223.3
 09 11 2013  08 01  -21.0589 25988.2 -03501.5 -07.6734 26223.0
 09 11 2013  08 02  -21.0582 25987.9 -03501.4 -07.6734 26222.7
 09 11 2013  08 03  -21.0572 25987.0 -03500.9 -07.6726 26221.7
 09 11 2013  08 04  -21.0567 25986.4 -03500.7 -07.6723 26221.1
 09 11 2013  08 05  -21.0564 25986.2 -03500.7 -07.6724 26220.9
 09 11 2013  08 06  -21.0557 25986.0 -03500.8 -07.6725 26220.8
 09 11 2013  08 07  -21.0546 25986.0 -03500.8 -07.6727 26220.7
 09 11 2013  08 08  -21.0539 25986.0 -03500.9 -07.6729 26220.8
 09 11 2013  08 09  -21.0536 25986.0 -03501.1 -07.6733 26220.8
 09 11 2013  08 10  -21.0531 25985.6 -03501.1 -07.6733 26220.4
 09 11 2013  08 11  -21.0533 25984.8 -03500.8 -07.6730 26219.5
 09 11 2013  08 12  -21.0541 25983.9 -03500.5 -07.6726 26218.7
 09 11 2013  08 13  -21.0545 25983.6 -03500.4 -07.6724 26218.4
 09 11 2013  08 14  -21.0553 25983.9 -03500.6 -07.6728 26218.7
 09 11 2013  08 15  -21.0562 25984.5 -03501.0 -07.6735 26219.3
 09 11 2013  08 16  -21.0567 25984.9 -03501.3 -07.6740 26219.7
 09 11 2013  08 17  -21.0572 25985.1 -03501.4 -07.6742 26219.9
 09 11 2013  08 18  -21.0572 25985.3 -03501.5 -07.6743 26220.1
 09 11 2013  08 19  -21.0567 25985.6 -03501.5 -07.6743 26220.4
 09 11 2013  08 20  -21.0564 25985.5 -03501.5 -07.6742 26220.4
 09 11 2013  08 21  -21.0561 25985.2 -03501.3 -07.6739 26220.0
 09 11 2013  08 22  -21.0557 25984.9 -03501.0 -07.6735 26219.6
 09 11 2013  08 23  -21.0552 25984.5 -03500.8 -07.6731 26219.2
 09 11 2013  08 24  -21.0543 25984.1 -03500.6 -07.6728 26218.9
 09 11 2013  08 25  -21.0531 25983.8 -03500.5 -07.6726 26218.5
 09 11 2013  08 26  -21.0514 25983.7 -03500.5 -07.6726 26218.4
 09 11 2013  08 27  -21.0494 25983.3 -03500.4 -07.6725 26218.1
 09 11 2013  08 28  -21.0474 25982.9 -03500.3 -07.6724 26217.6
 09 11 2013  08 29  -21.0458 25982.3 -03500.2 -07.6723 26217.0
 09 11 2013  08 30  -21.0443 25981.7 -03500.1 -07.6724 26216.4
 09 11 2013  08 31  -21.0428 25981.1 -03500.1 -07.6725 26215.8
 09 11 2013  08 32  -21.0411 25980.7 -03500.1 -07.6727 26215.4
 09 11 2013  08 33  -21.0399 25980.4 -03500.3 -07.6732 26215.1
 09 11 2013  08 34  -21.0391 25980.3 -03500.6 -07.6739 26215.0
 09 11 2013  08 35  -21.0380 25980.1 -03500.9 -07.6745 26214.9
 09 11 2013  08 36  -21.0367 25979.9 -03501.1 -07.6750 26214.7
 09 11 2013  08 37  -21.0354 25979.2 -03501.2 -07.6754 26214.1
 09 11 2013  08 38  -21.0340 25978.8 -03501.3 -07.6757 26213.7
 09 11 2013  08 39  -21.0325 25978.3 -03501.4 -07.6761 26213.2
 09 11 2013  08 40  -21.0310 25978.0 -03501.7 -07.6768 26212.9
 09 11 2013  08 41  -21.0292 25977.7 -03501.9 -07.6775 26212.7
 09 11 2013  08 42  -21.0278 25977.3 -03502.2 -07.6782 26212.4
 09 11 2013  08 43  -21.0267 25976.8 -03502.4 -07.6788 26211.9
 09 11 2013  08 44  -21.0258 25976.3 -03502.6 -07.6794 26211.3
 09 11 2013  08 45  -21.0252 25976.0 -03503.1 -07.6804 26211.2
 09 11 2013  08 46  -21.0249 25975.8 -03503.5 -07.6815 26211.0
 09 11 2013  08 47  -21.0245 25975.6 -03503.9 -07.6823 26210.8
 09 11 2013  08 48  -21.0236 25975.2 -03504.2 -07.6830 26210.5
 09 11 2013  08 49  -21.0224 25974.8 -03504.4 -07.6837 26210.1
 09 11 2013  08 50  -21.0221 25974.1 -03504.6 -07.6843 26209.5
 09 11 2013  08 51  -21.0212 25972.8 -03504.5 -07.6844 26208.1
 09 11 2013  08 52  -21.0204 25971.8 -03504.4 -07.6845 26207.2
 09 11 2013  08 53  -21.0197 25972.0 -03505.0 -07.6857 26207.5
 09 11 2013  08 54  -21.0184 25972.5 -03505.7 -07.6871 26208.0
 09 11 2013  08 55  -21.0174 25973.2 -03506.5 -07.6888 26208.8
 09 11 2013  08 56  -21.0166 25973.2 -03507.1 -07.6900 26208.9
 09 11 2013  08 57  -21.0163 25972.9 -03507.4 -07.6907 26208.6
 09 11 2013  08 58  -21.0162 25972.7 -03507.6 -07.6913 26208.5
 09 11 2013  08 59  -21.0168 25972.6 -03507.9 -07.6920 26208.4
 09 11 2013  09 00  -21.0176 25972.9 -03508.4 -07.6929 26208.8
 09 11 2013  09 01  -21.0185 25973.2 -03508.9 -07.6939 26209.2
 09 11 2013  09 02  -21.0204 25972.8 -03509.0 -07.6942 26208.8
 09 11 2013  09 03  -21.0230 25972.4 -03509.0 -07.6943 26208.4
 09 11 2013  09 04  -21.0256 25971.8 -03508.7 -07.6938 26207.7
 09 11 2013  09 05  -21.0287 25972.4 -03508.8 -07.6940 26208.4
 09 11 2013  09 06  -21.0301 25972.5 -03508.7 -07.6937 26208.5
 09 11 2013  09 07  -21.0300 25972.6 -03508.5 -07.6933 26208.5
 09 11 2013  09 08  -21.0280 25972.4 -03508.3 -07.6929 26208.2
 09 11 2013  09 09  -21.0263 25971.7 -03508.2 -07.6928 26207.6
 09 11 2013  09 10  -21.0238 25970.5 -03507.7 -07.6922 26206.3
 09 11 2013  09 11  -21.0242 25970.3 -03508.1 -07.6931 26206.1
 09 11 2013  09 12  -21.0247 25970.3 -03508.7 -07.6943 26206.3
 09 11 2013  09 13  -21.0253 25970.7 -03509.3 -07.6955 26206.8
 09 11 2013  09 14  -21.0264 25970.8 -03509.8 -07.6965 26206.9
 09 11 2013  09 15  -21.0270 25970.9 -03510.1 -07.6971 26207.0
 09 11 2013  09 16  -21.0280 25970.9 -03510.4 -07.6977 26207.1
 09 11 2013  09 17  -21.0294 25971.0 -03510.7 -07.6984 26207.2
 09 11 2013  09 18  -21.0309 25971.1 -03511.0 -07.6991 26207.4
 09 11 2013  09 19  -21.0321 25971.2 -03511.3 -07.6996 26207.5
 09 11 2013  09 20  -21.0336 25971.5 -03511.6 -07.7002 26207.8
 09 11 2013  09 21  -21.0354 25972.2 -03511.9 -07.7007 26208.5
 09 11 2013  09 22  -21.0371 25972.9 -03512.2 -07.7011 26209.3
 09 11 2013  09 23  -21.0391 25973.7 -03512.4 -07.7014 26210.1
 09 11 2013  09 24  -21.0403 25974.1 -03512.5 -07.7014 26210.6
 09 11 2013  09 25  -21.0416 25974.4 -03512.5 -07.7012 26210.8
 09 11 2013  09 26  -21.0421 25974.4 -03512.3 -07.7009 26210.8
 09 11 2013  09 27  -21.0427 25974.3 -03512.1 -07.7005 26210.7
 09 11 2013  09 28  -21.0432 25974.2 -03511.9 -07.7002 26210.5
 09 11 2013  09 29  -21.0427 25973.8 -03511.7 -07.6999 26210.1
 09 11 2013  09 30  -21.0431 25973.9 -03511.8 -07.6999 26210.2
 09 11 2013  09 31  -21.0443 25974.5 -03512.1 -07.7004 26210.9
 09 11 2013  09 32  -21.0441 25974.8 -03512.2 -07.7007 26211.1
 09 11 2013  09 33  -21.0441 25975.1 -03512.4 -07.7008 26211.5
 09 11 2013  09 34  -21.0450 25975.7 -03512.7 -07.7013 26212.2
 09 11 2013  09 35  -21.0457 25976.4 -03512.9 -07.7017 26212.8
 09 11 2013  09 36  -21.0462 25976.8 -03513.0 -07.7018 26213.2
 09 11 2013  09 37  -21.0469 25977.3 -03513.2 -07.7019 26213.8
 09 11 2013  09 38  -21.0482 25978.0 -03513.3 -07.7021 26214.5
 09 11 2013  09 39  -21.0490 25978.4 -03513.3 -07.7020 26214.9
 09 11 2013  09 40  -21.0504 25978.9 -03513.4 -07.7020 26215.5
 09 11 2013  09 41  -21.0519 25979.5 -03513.4 -07.7019 26216.0
 09 11 2013  09 42  -21.0538 25980.4 -03513.6 -07.7020 26216.9
 09 11 2013  09 43  -21.0531 25980.4 -03513.2 -07.7011 26216.8
 09 11 2013  09 44  -21.0522 25980.2 -03512.8 -07.7003 26216.6
 09 11 2013  09 45  -21.0525 25980.5 -03512.8 -07.7001 26216.9
 09 11 2013  09 46  -21.0526 25980.6 -03512.7 -07.7000 26217.0
 09 11 2013  09 47  -21.0521 25980.4 -03512.5 -07.6995 26216.7
 09 11 2013  09 48  -21.0520 25980.6 -03512.5 -07.6995 26216.9
 09 11 2013  09 49  -21.0513 25980.7 -03512.4 -07.6994 26217.0
 09 11 2013  09 50  -21.0518 25980.9 -03512.4 -07.6993 26217.3
 09 11 2013  09 51  -21.0522 25981.0 -03512.4 -07.6993 26217.4
 09 11 2013  09 52  -21.0525 25981.0 -03512.5 -07.6993 26217.4
 09 11 2013  09 53  -21.0520 25980.5 -03512.3 -07.6990 26216.8
 09 11 2013  09 54  -21.0528 25980.5 -03512.4 -07.6992 26216.9
 09 11 2013  09 55  -21.0536 25980.6 -03512.5 -07.6996 26217.0
 09 11 2013  09 56  -21.0539 25980.7 -03512.7 -07.6998 26217.1
 09 11 2013  09 57  -21.0548 25981.2 -03513.0 -07.7004 26217.6
 09 11 2013  09 58  -21.0562 25981.7 -03513.2 -07.7008 26218.2
 09 11 2013  09 59  -21.0571 25982.1 -03513.3 -07.7008 26218.6
 09 11 2013  10 00  -21.0591 25983.2 -03513.7 -07.7013 26219.7
 09 11 2013  10 01  -21.0600 25983.9 -03513.9 -07.7015 26220.4
 09 11 2013  10 02  -21.0606 25983.7 -03513.6 -07.7010 26220.2
 09 11 2013  10 03  -21.0618 25983.9 -03513.5 -07.7007 26220.3
 09 11 2013  10 04  -21.0630 25984.0 -03513.4 -07.7004 26220.5
 09 11 2013  10 05  -21.0640 25984.3 -03513.2 -07.7000 26220.7
 09 11 2013  10 06  -21.0664 25984.6 -03513.2 -07.6999 26221.0
 09 11 2013  10 07  -21.0686 25985.0 -03513.2 -07.6998 26221.4
 09 11 2013  10 08  -21.0694 25985.1 -03513.0 -07.6993 26221.5
 09 11 2013  10 09  -21.0694 25984.9 -03512.7 -07.6986 26221.2
 09 11 2013  10 10  -21.0693 25984.4 -03512.2 -07.6978 26220.7
 09 11 2013  10 11  -21.0690 25984.4 -03512.0 -07.6973 26220.7
 09 11 2013  10 12  -21.0698 25985.1 -03512.0 -07.6971 26221.3
 09 11 2013  10 13  -21.0708 25985.8 -03512.0 -07.6970 26222.1
 09 11 2013  10 14  -21.0706 25986.0 -03511.9 -07.6966 26222.2
 09 11 2013  10 15  -21.0707 25986.1 -03511.8 -07.6963 26222.4
 09 11 2013  10 16  -21.0714 25986.9 -03511.9 -07.6963 26223.2
 09 11 2013  10 17  -21.0724 25987.1 -03511.8 -07.6960 26223.3
 09 11 2013  10 18  -21.0730 25987.5 -03511.7 -07.6957 26223.7
 09 11 2013  10 19  -21.0742 25987.7 -03511.5 -07.6952 26223.9
 09 11 2013  10 20  -21.0749 25988.2 -03511.4 -07.6949 26224.3
 09 11 2013  10 21  -21.0749 25988.4 -03511.2 -07.6945 26224.5
 09 11 2013  10 22  -21.0745 25988.2 -03511.0 -07.6940 26224.3
 09 11 2013  10 23  -21.0745 25987.9 -03510.7 -07.6936 26224.0
 09 11 2013  10 24  -21.0752 25988.0 -03510.8 -07.6937 26224.0
 09 11 2013  10 25  -21.0755 25988.2 -03510.9 -07.6938 26224.3
 09 11 2013  10 26  -21.0755 25988.2 -03510.8 -07.6936 26224.3
 09 11 2013  10 27  -21.0759 25988.0 -03510.6 -07.6933 26224.0
 09 11 2013  10 28  -21.0763 25987.5 -03510.3 -07.6928 26223.5
 09 11 2013  10 29  -21.0765 25986.9 -03510.1 -07.6925 26222.9
 09 11 2013  10 30  -21.0769 25986.9 -03510.1 -07.6924 26222.9
 09 11 2013  10 31  -21.0777 25986.8 -03510.1 -07.6924 26222.8
 09 11 2013  10 32  -21.0777 25985.9 -03509.6 -07.6917 26221.8
 09 11 2013  10 33  -21.0775 25985.1 -03509.3 -07.6912 26221.0
 09 11 2013  10 34  -21.0775 25984.7 -03509.2 -07.6911 26220.6
 09 11 2013  10 35  -21.0771 25984.5 -03509.2 -07.6911 26220.4
 09 11 2013  10 36  -21.0761 25984.8 -03509.3 -07.6913 26220.7
 09 11 2013  10 37  -21.0763 25985.6 -03509.6 -07.6917 26221.5
 09 11 2013  10 38  -21.0777 25986.7 -03509.9 -07.6921 26222.6
 09 11 2013  10 39  -21.0789 25987.7 -03510.2 -07.6924 26223.7
 09 11 2013  10 40  -21.0785 25988.4 -03510.1 -07.6921 26224.4
 09 11 2013  10 41  -21.0788 25989.2 -03510.1 -07.6918 26225.2
 09 11 2013  10 42  -21.0787 25990.0 -03509.9 -07.6912 26225.9
 09 11 2013  10 43  -21.0780 25989.9 -03509.4 -07.6900 26225.8
 09 11 2013  10 44  -21.0771 25989.6 -03508.9 -07.6891 26225.4
 09 11 2013  10 45  -21.0767 25989.7 -03508.7 -07.6885 26225.5
 09 11 2013  10 46  -21.0776 25990.7 -03508.8 -07.6886 26226.5
 09 11 2013  10 47  -21.0791 25991.3 -03508.8 -07.6884 26227.1
 09 11 2013  10 48  -21.0803 25991.5 -03508.6 -07.6880 26227.3
 09 11 2013  10 49  -21.0807 25991.9 -03508.4 -07.6874 26227.6
 09 11 2013  10 50  -21.0814 25991.7 -03507.9 -07.6864 26227.4
 09 11 2013  10 51  -21.0816 25991.5 -03507.5 -07.6856 26227.1
 09 11 2013  10 52  -21.0830 25991.7 -03507.4 -07.6852 26227.3
 09 11 2013  10 53  -21.0839 25991.9 -03507.3 -07.6849 26227.4
 09 11 2013  10 54  -21.0828 25991.9 -03507.0 -07.6844 26227.5
 09 11 2013  10 55  -21.0823 25992.1 -03506.9 -07.6839 26227.6
 09 11 2013  10 56  -21.0819 25992.6 -03506.8 -07.6836 26228.1
 09 11 2013  10 57  -21.0820 25992.9 -03506.7 -07.6833 26228.4
 09 11 2013  10 58  -21.0815 25993.5 -03506.6 -07.6829 26229.0
 09 11 2013  10 59  -21.0827 25994.6 -03506.6 -07.6828 26230.0
 09 11 2013  11 00  -21.0848 25995.1 -03506.5 -07.6822 26230.5
 09 11 2013  11 01  -21.0860 25995.0 -03506.0 -07.6813 26230.4
 09 11 2013  11 02  -21.0854 25994.3 -03505.3 -07.6799 26229.6
 09 11 2013  11 03  -21.0843 25993.8 -03504.8 -07.6790 26229.0
 09 11 2013  11 04  -21.0834 25993.0 -03504.3 -07.6782 26228.1
 09 11 2013  11 05  -21.0811 25992.0 -03503.8 -07.6773 26227.0
 09 11 2013  11 06  -21.0797 25991.0 -03503.4 -07.6768 26226.0
 09 11 2013  11 07  -21.0796 25990.8 -03503.6 -07.6771 26225.9
 09 11 2013  11 08  -21.0788 25991.4 -03503.9 -07.6777 26226.5
 09 11 2013  11 09  -21.0786 25991.4 -03504.0 -07.6779 26226.5
 09 11 2013  11 10  -21.0787 25992.0 -03504.2 -07.6782 26227.2
 09 11 2013  11 11  -21.0774 25992.0 -03504.2 -07.6782 26227.2
 09 11 2013  11 12  -21.0772 25992.3 -03504.2 -07.6782 26227.4
 09 11 2013  11 13  -21.0763 25993.4 -03504.5 -07.6785 26228.6
 09 11 2013  11 14  -21.0756 25995.0 -03504.9 -07.6789 26230.2
 09 11 2013  11 15  -21.0753 25996.1 -03505.0 -07.6787 26231.3
 09 11 2013  11 16  -21.0741 25997.4 -03505.0 -07.6784 26232.6
 09 11 2013  11 17  -21.0741 25998.8 -03505.2 -07.6784 26234.1
 09 11 2013  11 18  -21.0735 26000.5 -03505.3 -07.6782 26235.7
 09 11 2013  11 19  -21.0738 26002.1 -03505.5 -07.6781 26237.3
 09 11 2013  11 20  -21.0730 26002.6 -03505.1 -07.6772 26237.7
 09 11 2013  11 21  -21.0739 26002.4 -03504.7 -07.6762 26237.5
 09 11 2013  11 22  -21.0753 26002.1 -03504.2 -07.6753 26237.2
 09 11 2013  11 23  -21.0753 26002.1 -03504.0 -07.6748 26237.1
 09 11 2013  11 24  -21.0762 26001.6 -03503.7 -07.6744 26236.6
 09 11 2013  11 25  -21.0766 26001.2 -03503.5 -07.6740 26236.2
 09 11 2013  11 26  -21.0766 26000.2 -03503.0 -07.6732 26235.1
 09 11 2013  11 27  -21.0758 25999.4 -03502.7 -07.6728 26234.3
 09 11 2013  11 28  -21.0750 25998.8 -03502.6 -07.6728 26233.7
 09 11 2013  11 29  -21.0743 25998.8 -03503.0 -07.6735 26233.8
 09 11 2013  11 30  -21.0727 25997.5 -03502.7 -07.6733 26232.4
 09 11 2013  11 31  -21.0714 25996.5 -03502.6 -07.6733 26231.4
 09 11 2013  11 32  -21.0712 25997.1 -03503.2 -07.6747 26232.0
 09 11 2013  11 33  -21.0706 25997.8 -03503.9 -07.6759 26232.8
 09 11 2013  11 34  -21.0714 25997.2 -03504.0 -07.6763 26232.3
 09 11 2013  11 35  -21.0727 25995.7 -03503.7 -07.6761 26230.8
 09 11 2013  11 36  -21.0717 25995.4 -03503.8 -07.6763 26230.5
 09 11 2013  11 37  -21.0701 25996.4 -03504.4 -07.6773 26231.5
 09 11 2013  11 38  -21.0676 25997.9 -03505.0 -07.6783 26233.1
 09 11 2013  11 39  -21.0645 25999.0 -03505.4 -07.6788 26234.2
 09 11 2013  11 40  -21.0623 25999.5 -03505.4 -07.6787 26234.7
 09 11 2013  11 41  -21.0601 26000.4 -03505.5 -07.6786 26235.6
 09 11 2013  11 42  -21.0590 26000.8 -03505.4 -07.6783 26236.1
 09 11 2013  11 43  -21.0578 26002.6 -03505.8 -07.6786 26237.8
 09 11 2013  11 44  -21.0559 26005.2 -03506.4 -07.6792 26240.6
 09 11 2013  11 45  -21.0565 26007.3 -03506.8 -07.6793 26242.6
 09 11 2013  11 46  -21.0575 26008.3 -03506.6 -07.6787 26243.7
 09 11 2013  11 47  -21.0555 26012.0 -03507.2 -07.6790 26247.3
 09 11 2013  11 48  -21.0558 26014.2 -03507.4 -07.6786 26249.6
 09 11 2013  11 49  -21.0562 26015.0 -03506.8 -07.6771 26250.3
 09 11 2013  11 50  -21.0567 26014.8 -03505.9 -07.6753 26250.0
 09 11 2013  11 51  -21.0563 26015.5 -03505.5 -07.6741 26250.6
 09 11 2013  11 52  -21.0544 26017.5 -03505.5 -07.6736 26252.6
 09 11 2013  11 53  -21.0537 26017.8 -03504.9 -07.6722 26252.8
 09 11 2013  11 54  -21.0526 26018.4 -03504.4 -07.6709 26253.3
 09 11 2013  11 55  -21.0507 26020.1 -03504.5 -07.6707 26255.0
 09 11 2013  11 56  -21.0498 26020.1 -03503.9 -07.6694 26255.0
 09 11 2013  11 57  -21.0504 26021.2 -03503.9 -07.6690 26256.1
 09 11 2013  11 58  -21.0517 26022.4 -03503.9 -07.6687 26257.2
 09 11 2013  11 59  -21.0521 26022.9 -03503.5 -07.6677 26257.7
 09 11 2013  12 00  -21.0535 26023.1 -03503.1 -07.6668 26257.9
 09 11 2013  12 01  -21.0536 26022.5 -03502.3 -07.6652 26257.1
 09 11 2013  12 02  -21.0527 26020.9 -03501.1 -07.6631 26255.4
 09 11 2013  12 03  -21.0501 26020.0 -03500.4 -07.6618 26254.4
 09 11 2013  12 04  -21.0481 26019.4 -03500.0 -07.6611 26253.7
 09 11 2013  12 05  -21.0485 26018.2 -03499.5 -07.6605 26252.5
 09 11 2013  12 06  -21.0481 26017.1 -03499.2 -07.6600 26251.4
 09 11 2013  12 07  -21.0465 26016.9 -03499.1 -07.6600 26251.2
 09 11 2013  12 08  -21.0471 26018.3 -03499.8 -07.6611 26252.6
 09 11 2013  12 09  -21.0461 26019.3 -03500.2 -07.6615 26253.7
 09 11 2013  12 10  -21.0455 26020.4 -03500.5 -07.6620 26254.8
 09 11 2013  12 11  -21.0456 26021.3 -03500.7 -07.6622 26255.7
 09 11 2013  12 12  -21.0459 26021.5 -03500.6 -07.6618 26255.9
 09 11 2013  12 13  -21.0470 26020.9 -03500.2 -07.6612 26255.2
 09 11 2013  12 14  -21.0479 26021.1 -03500.3 -07.6612 26255.5
 09 11 2013  12 15  -21.0475 26021.3 -03500.2 -07.6610 26255.6
 09 11 2013  12 16  -21.0461 26020.8 -03499.8 -07.6603 26255.1
 09 11 2013  12 17  -21.0439 26021.0 -03499.8 -07.6602 26255.3
 09 11 2013  12 18  -21.0435 26021.9 -03500.1 -07.6606 26256.2
 09 11 2013  12 19  -21.0438 26022.4 -03500.3 -07.6610 26256.8
 09 11 2013  12 20  -21.0441 26023.7 -03500.7 -07.6615 26258.1
 09 11 2013  12 21  -21.0439 26024.0 -03500.5 -07.6610 26258.3
 09 11 2013  12 22  -21.0438 26023.6 -03500.1 -07.6602 26257.9
 09 11 2013  12 23  -21.0437 26023.8 -03500.0 -07.6599 26258.1
 09 11 2013  12 24  -21.0443 26024.7 -03500.3 -07.6601 26259.1
 09 11 2013  12 25  -21.0450 26025.0 -03500.2 -07.6600 26259.3
 09 11 2013  12 26  -21.0441 26026.1 -03500.4 -07.6600 26260.5
 09 11 2013  12 27  -21.0442 26026.2 -03500.3 -07.6599 26260.5
 09 11 2013  12 28  -21.0432 26024.6 -03499.6 -07.6588 26258.8
 09 11 2013  12 29  -21.0436 26025.7 -03500.1 -07.6595 26260.0
 09 11 2013  12 30  -21.0447 26026.4 -03500.3 -07.6598 26260.8
 09 11 2013  12 31  -21.0484 26027.0 -03500.5 -07.6599 26261.3
 09 11 2013  12 32  -21.0483 26023.4 -03498.7 -07.6573 26257.6
 09 11 2013  12 33  -21.0452 26019.7 -03497.1 -07.6547 26253.7
 09 11 2013  12 34  -21.0416 26016.1 -03496.0 -07.6534 26250.0
 09 11 2013  12 35  -21.0401 26014.7 -03496.3 -07.6544 26248.6
 09 11 2013  12 36  -21.0404 26014.6 -03497.2 -07.6565 26248.7
 09 11 2013  12 37  -21.0407 26014.2 -03497.8 -07.6579 26248.3
 09 11 2013  12 38  -21.0409 26014.8 -03498.7 -07.6597 26249.0
 09 11 2013  12 39  -21.0422 26015.1 -03499.4 -07.6610 26249.4
 09 11 2013  12 40  -21.0437 26014.1 -03499.5 -07.6616 26248.4
 09 11 2013  12 41  -21.0428 26013.7 -03499.8 -07.6624 26248.0
 09 11 2013  12 42  -21.0432 26013.4 -03500.3 -07.6635 26247.8
 09 11 2013  12 43  -21.0445 26014.2 -03501.4 -07.6656 26248.8
 09 11 2013  12 44  -21.0471 26014.3 -03501.9 -07.6668 26248.9
 09 11 2013  12 45  -21.0492 26012.7 -03501.6 -07.6665 26247.3
 09 11 2013  12 46  -21.0509 26010.1 -03500.9 -07.6659 26244.6
 09 11 2013  12 47  -21.0518 26008.8 -03501.1 -07.6666 26243.4
 09 11 2013  12 48  -21.0514 26008.8 -03501.6 -07.6678 26243.4
 09 11 2013  12 49  -21.0509 26009.2 -03502.5 -07.6694 26243.9
 09 11 2013  12 50  -21.0502 26010.7 -03503.7 -07.6717 26245.6
 09 11 2013  12 51  -21.0492 26012.5 -03504.8 -07.6734 26247.6
 09 11 2013  12 52  -21.0483 26012.4 -03504.8 -07.6735 26247.5
 09 11 2013  12 53  -21.0476 26012.1 -03504.8 -07.6737 26247.2
 09 11 2013  12 54  -21.0473 26012.0 -03505.0 -07.6740 26247.1
 09 11 2013  12 55  -21.0472 26012.3 -03505.3 -07.6747 26247.4
 09 11 2013  12 56  -21.0472 26012.2 -03505.6 -07.6753 26247.4
 09 11 2013  12 57  -21.0478 26011.9 -03505.8 -07.6759 26247.1
 09 11 2013  12 58  -21.0487 26011.7 -03506.2 -07.6768 26246.9
 09 11 2013  12 59  -21.0500 26011.8 -03506.7 -07.6779 26247.1
 09 11 2013  13 00  -21.0510 26011.7 -03507.2 -07.6790 26247.1
 09 11 2013  13 01  -21.0522 26011.8 -03507.7 -07.6800 26247.3
 09 11 2013  13 02  -21.0540 26011.4 -03508.0 -07.6807 26246.9
 09 11 2013  13 03  -21.0558 26010.6 -03508.0 -07.6810 26246.1
 09 11 2013  13 04  -21.0567 26009.9 -03508.2 -07.6816 26245.5
 09 11 2013  13 05  -21.0573 26009.1 -03508.4 -07.6824 26244.7
 09 11 2013  13 06  -21.0570 26008.7 -03508.8 -07.6832 26244.3
 09 11 2013  13 07  -21.0566 26009.0 -03509.3 -07.6842 26244.7
 09 11 2013  13 08  -21.0571 26009.2 -03509.6 -07.6849 26244.9
 09 11 2013  13 09  -21.0578 26008.6 -03509.5 -07.6849 26244.3
 09 11 2013  13 10  -21.0578 26007.9 -03509.5 -07.6851 26243.7
 09 11 2013  13 11  -21.0573 26006.9 -03509.4 -07.6851 26242.7
 09 11 2013  13 12  -21.0571 26007.1 -03509.9 -07.6862 26242.9
 09 11 2013  13 13  -21.0570 26007.9 -03510.5 -07.6872 26243.7
 09 11 2013  13 14  -21.0576 26008.9 -03511.2 -07.6885 26244.8
 09 11 2013  13 15  -21.0585 26009.7 -03511.6 -07.6891 26245.7
 09 11 2013  13 16  -21.0596 26010.9 -03512.0 -07.6895 26246.9
 09 11 2013  13 17  -21.0610 26011.9 -03512.2 -07.6897 26247.9
 09 11 2013  13 18  -21.0619 26012.8 -03512.4 -07.6898 26248.9
 09 11 2013  13 19  -21.0624 26013.9 -03512.5 -07.6899 26250.0
 09 11 2013  13 20  -21.0623 26013.8 -03512.2 -07.6892 26249.9
 09 11 2013  13 21  -21.0616 26014.4 -03512.2 -07.6890 26250.4
 09 11 2013  13 22  -21.0616 26015.2 -03512.2 -07.6888 26251.3
 09 11 2013  13 23  -21.0620 26016.2 -03512.3 -07.6888 26252.2
 09 11 2013  13 24  -21.0618 26017.2 -03512.3 -07.6884 26253.2
 09 11 2013  13 25  -21.0616 26017.7 -03512.0 -07.6877 26253.6
 09 11 2013  13 26  -21.0616 26017.7 -03511.6 -07.6866 26253.6
 09 11 2013  13 27  -21.0616 26017.4 -03511.0 -07.6855 26253.2
 09 11 2013  13 28  -21.0615 26017.6 -03510.9 -07.6852 26253.4
 09 11 2013  13 29  -21.0609 26017.5 -03510.7 -07.6848 26253.3
 09 11 2013  13 30  -21.0599 26017.8 -03510.5 -07.6843 26253.6
 09 11 2013  13 31  -21.0596 26018.3 -03510.4 -07.6840 26254.1
 09 11 2013  13 32  -21.0595 26018.8 -03510.4 -07.6837 26254.6
 09 11 2013  13 33  -21.0594 26019.3 -03510.2 -07.6832 26255.0
 09 11 2013  13 34  -21.0594 26019.8 -03510.0 -07.6826 26255.5
 09 11 2013  13 35  -21.0591 26019.9 -03509.4 -07.6814 26255.5
 09 11 2013  13 36  -21.0585 26020.2 -03509.2 -07.6807 26255.7
 09 11 2013  13 37  -21.0575 26019.9 -03508.7 -07.6797 26255.4
 09 11 2013  13 38  -21.0568 26019.5 -03508.2 -07.6788 26254.9
 09 11 2013  13 39  -21.0564 26019.7 -03508.0 -07.6784 26255.2
 09 11 2013  13 40  -21.0561 26020.6 -03508.1 -07.6783 26256.0
 09 11 2013  13 41  -21.0557 26022.1 -03508.3 -07.6784 26257.5
 09 11 2013  13 42  -21.0555 26023.2 -03508.2 -07.6779 26258.6
 09 11 2013  13 43  -21.0551 26023.5 -03507.8 -07.6768 26258.9
 09 11 2013  13 44  -21.0542 26024.0 -03507.4 -07.6757 26259.2
 09 11 2013  13 45  -21.0535 26024.2 -03506.9 -07.6747 26259.4
 09 11 2013  13 46  -21.0527 26025.0 -03506.7 -07.6740 26260.2
 09 11 2013  13 47  -21.0521 26025.8 -03506.5 -07.6734 26260.9
 09 11 2013  13 48  -21.0512 26027.0 -03506.5 -07.6730 26262.1
 09 11 2013  13 49  -21.0505 26028.3 -03506.5 -07.6725 26263.5
 09 11 2013  13 50  -21.0498 26029.5 -03506.3 -07.6719 26264.6
 09 11 2013  13 51  -21.0493 26029.9 -03505.8 -07.6705 26264.9
 09 11 2013  13 52  -21.0485 26029.7 -03505.1 -07.6691 26264.6
 09 11 2013  13 53  -21.0478 26029.2 -03504.4 -07.6678 26264.0
 09 11 2013  13 54  -21.0474 26028.9 -03503.9 -07.6668 26263.7
 09 11 2013  13 55  -21.0472 26029.1 -03503.7 -07.6663 26263.9
 09 11 2013  13 56  -21.0469 26029.6 -03503.6 -07.6659 26264.3
 09 11 2013  13 57  -21.0464 26029.8 -03503.4 -07.6654 26264.5
 09 11 2013  13 58  -21.0461 26030.3 -03503.3 -07.6650 26265.0
 09 11 2013  13 59  -21.0458 26031.0 -03503.2 -07.6647 26265.7
 09 11 2013  14 00  -21.0458 26031.4 -03503.1 -07.6643 26266.0
 09 11 2013  14 01  -21.0459 26032.0 -03503.0 -07.6640 26266.6
 09 11 2013  14 02  -21.0454 26032.7 -03502.8 -07.6634 26267.3
 09 11 2013  14 03  -21.0453 26033.4 -03502.7 -07.6629 26268.0
 09 11 2013  14 04  -21.0454 26034.1 -03502.5 -07.6623 26268.7
 09 11 2013  14 05  -21.0448 26034.9 -03502.4 -07.6618 26269.4
 09 11 2013  14 06  -21.0439 26035.1 -03502.0 -07.6609 26269.5
 09 11 2013  14 07  -21.0431 26034.7 -03501.5 -07.6599 26269.1
 09 11 2013  14 08  -21.0421 26035.3 -03501.4 -07.6595 26269.7
 09 11 2013  14 09  -21.0417 26036.7 -03501.6 -07.6595 26271.1
 09 11 2013  14 10  -21.0415 26037.3 -03501.4 -07.6589 26271.7
 09 11 2013  14 11  -21.0414 26037.9 -03501.2 -07.6584 26272.3
 09 11 2013  14 12  -21.0413 26038.7 -03501.1 -07.6580 26273.0
 09 11 2013  14 13  -21.0410 26038.8 -03500.7 -07.6570 26273.0
 09 11 2013  14 14  -21.0399 26038.4 -03500.0 -07.6555 26272.6
 09 11 2013  14 15  -21.0389 26038.8 -03499.6 -07.6546 26272.9
 09 11 2013  14 16  -21.0385 26039.9 -03499.6 -07.6543 26274.0
 09 11 2013  14 17  -21.0369 26040.7 -03499.4 -07.6537 26274.8
 09 11 2013  14 18  -21.0356 26040.9 -03499.0 -07.6527 26274.9
 09 11 2013  14 19  -21.0357 26041.2 -03498.8 -07.6521 26275.2
 09 11 2013  14 20  -21.0359 26042.1 -03498.8 -07.6519 26276.1
 09 11 2013  14 21  -21.0361 26042.7 -03498.7 -07.6517 26276.6
 09 11 2013  14 22  -21.0363 26042.8 -03498.4 -07.6509 26276.8
 09 11 2013  14 23  -21.0360 26043.2 -03498.2 -07.6502 26277.1
 09 11 2013  14 24  -21.0356 26043.6 -03497.9 -07.6495 26277.4
 09 11 2013  14 25  -21.0356 26043.8 -03497.6 -07.6489 26277.7
 09 11 2013  14 26  -21.0354 26043.3 -03497.1 -07.6479 26277.1
 09 11 2013  14 27  -21.0356 26042.9 -03496.7 -07.6472 26276.5
 09 11 2013  14 28  -21.0356 26042.7 -03496.4 -07.6467 26276.3
 09 11 2013  14 29  -21.0361 26042.6 -03496.2 -07.6462 26276.2
 09 11 2013  14 30  -21.0368 26043.1 -03496.3 -07.6462 26276.8
 09 11 2013  14 31  -21.0367 26043.9 -03496.3 -07.6460 26277.5
 09 11 2013  14 32  -21.0360 26043.8 -03495.9 -07.6452 26277.4
 09 11 2013  14 33  -21.0354 26043.6 -03495.6 -07.6445 26277.2
 09 11 2013  14 34  -21.0350 26043.5 -03495.2 -07.6439 26277.0
 09 11 2013  14 35  -21.0344 26044.6 -03495.4 -07.6439 26278.1
 09 11 2013  14 36  -21.0349 26045.9 -03495.5 -07.6438 26279.4
 09 11 2013  14 37  -21.0355 26047.9 -03495.8 -07.6438 26281.4
 09 11 2013  14 38  -21.0362 26050.7 -03496.3 -07.6440 26284.2
 09 11 2013  14 39  -21.0356 26052.1 -03496.0 -07.6430 26285.6
 09 11 2013  14 40  -21.0338 26052.2 -03495.1 -07.6411 26285.6
 09 11 2013  14 41  -21.0323 26052.5 -03494.7 -07.6401 26285.8
 09 11 2013  14 42  -21.0316 26052.5 -03494.3 -07.6392 26285.8
 09 11 2013  14 43  -21.0312 26052.5 -03493.8 -07.6381 26285.7
 09 11 2013  14 44  -21.0319 26053.5 -03493.9 -07.6381 26286.7
 09 11 2013  14 45  -21.0324 26053.6 -03493.6 -07.6373 26286.8
 09 11 2013  14 46  -21.0328 26052.4 -03492.6 -07.6357 26285.4
 09 11 2013  14 47  -21.0335 26051.7 -03492.0 -07.6346 26284.7
 09 11 2013  14 48  -21.0337 26051.6 -03491.8 -07.6342 26284.5
 09 11 2013  14 49  -21.0337 26051.1 -03491.4 -07.6334 26284.0
 09 11 2013  14 50  -21.0340 26050.6 -03491.1 -07.6328 26283.5
 09 11 2013  14 51  -21.0332 26050.7 -03490.9 -07.6324 26283.6
 09 11 2013  14 52  -21.0313 26050.9 -03490.8 -07.6320 26283.8
 09 11 2013  14 53  -21.0295 26051.2 -03490.7 -07.6319 26284.0
 09 11 2013  14 54  -21.0287 26051.3 -03490.6 -07.6316 26284.2
 09 11 2013  14 55  -21.0281 26051.3 -03490.4 -07.6311 26284.1
 09 11 2013  14 56  -21.0280 26051.5 -03490.2 -07.6307 26284.3
 09 11 2013  14 57  -21.0283 26051.2 -03489.8 -07.6299 26283.9
 09 11 2013  14 58  -21.0287 26050.1 -03489.2 -07.6289 26282.7
 09 11 2013  14 59  -21.0293 26049.6 -03489.1 -07.6287 26282.2
 09 11 2013  15 00  -21.0292 26049.9 -03489.2 -07.6290 26282.5
 09 11 2013  15 01  -21.0293 26051.0 -03489.7 -07.6296 26283.7
 09 11 2013  15 02  -21.0291 26052.0 -03489.9 -07.6299 26284.7
 09 11 2013  15 03  -21.0289 26052.3 -03489.9 -07.6297 26285.0
 09 11 2013  15 04  -21.0285 26052.3 -03489.6 -07.6292 26284.9
 09 11 2013  15 05  -21.0279 26051.8 -03489.3 -07.6285 26284.4
 09 11 2013  15 06  -21.0284 26051.3 -03489.0 -07.6280 26283.9
 09 11 2013  15 07  -21.0290 26050.5 -03488.7 -07.6277 26283.1
 09 11 2013  15 08  -21.0295 26049.5 -03488.3 -07.6271 26282.0
 09 11 2013  15 09  -21.0300 26048.4 -03487.9 -07.6267 26280.8
 09 11 2013  15 10  -21.0307 26048.4 -03488.1 -07.6271 26280.9
 09 11 2013  15 11  -21.0315 26048.1 -03488.2 -07.6273 26280.6
 09 11 2013  15 12  -21.0323 26047.4 -03488.1 -07.6272 26279.9
 09 11 2013  15 13  -21.0332 26047.3 -03488.2 -07.6275 26279.8
 09 11 2013  15 14  -21.0347 26047.6 -03488.6 -07.6282 26280.2
 09 11 2013  15 15  -21.0356 26047.3 -03488.5 -07.6282 26279.9
 09 11 2013  15 16  -21.0359 26046.8 -03488.3 -07.6280 26279.4
 09 11 2013  15 17  -21.0360 26047.5 -03488.7 -07.6285 26280.1
 09 11 2013  15 18  -21.0363 26047.4 -03488.6 -07.6284 26280.0
 09 11 2013  15 19  -21.0354 26047.7 -03488.8 -07.6287 26280.4
 09 11 2013  15 20  -21.0347 26048.1 -03488.9 -07.6288 26280.7
 09 11 2013  15 21  -21.0338 26047.9 -03488.7 -07.6284 26280.5
 09 11 2013  15 22  -21.0328 26048.5 -03488.8 -07.6285 26281.0
 09 11 2013  15 23  -21.0321 26049.4 -03489.1 -07.6289 26282.0
 09 11 2013  15 24  -21.0317 26049.7 -03489.0 -07.6286 26282.3
 09 11 2013  15 25  -21.0324 26049.4 -03488.7 -07.6281 26282.0
 09 11 2013  15 26  -21.0322 26049.8 -03488.7 -07.6278 26282.3
 09 11 2013  15 27  -21.0322 26049.8 -03488.6 -07.6277 26282.4
 09 11 2013  15 28  -21.0322 26049.9 -03488.5 -07.6275 26282.5
 09 11 2013  15 29  -21.0319 26049.7 -03488.4 -07.6272 26282.3
 09 11 2013  15 30  -21.0307 26050.3 -03488.6 -07.6275 26282.9
 09 11 2013  15 31  -21.0293 26050.7 -03488.7 -07.6275 26283.3
 09 11 2013  15 32  -21.0284 26051.0 -03488.7 -07.6276 26283.5
 09 11 2013  15 33  -21.0278 26051.4 -03488.9 -07.6278 26284.0
 09 11 2013  15 34  -21.0278 26051.7 -03488.9 -07.6278 26284.3
 09 11 2013  15 35  -21.0277 26051.9 -03488.9 -07.6277 26284.5
 09 11 2013  15 36  -21.0280 26052.0 -03488.9 -07.6276 26284.6
 09 11 2013  15 37  -21.0285 26051.8 -03488.8 -07.6275 26284.4
 09 11 2013  15 38  -21.0292 26051.0 -03488.4 -07.6269 26283.5
 09 11 2013  15 39  -21.0294 26050.1 -03488.0 -07.6263 26282.6
 09 11 2013  15 40  -21.0293 26049.1 -03487.6 -07.6257 26281.5
 09 11 2013  15 41  -21.0290 26048.1 -03487.3 -07.6253 26280.5
 09 11 2013  15 42  -21.0294 26046.4 -03486.7 -07.6246 26278.7
 09 11 2013  15 43  -21.0308 26045.7 -03486.8 -07.6249 26278.1
 09 11 2013  15 44  -21.0317 26045.9 -03487.1 -07.6255 26278.3
 09 11 2013  15 45  -21.0315 26046.0 -03487.2 -07.6258 26278.4
 09 11 2013  15 46  -21.0313 26046.4 -03487.5 -07.6262 26278.8
 09 11 2013  15 47  -21.0318 26047.1 -03487.8 -07.6267 26279.6
 09 11 2013  15 48  -21.0326 26048.0 -03488.1 -07.6271 26280.5
 09 11 2013  15 49  -21.0333 26048.6 -03488.1 -07.6270 26281.1
 09 11 2013  15 50  -21.0335 26048.9 -03488.1 -07.6268 26281.4
 09 11 2013  15 51  -21.0339 26050.0 -03488.3 -07.6269 26282.5
 09 11 2013  15 52  -21.0336 26049.6 -03487.8 -07.6259 26282.0
 09 11 2013  15 53  -21.0329 26049.3 -03487.4 -07.6252 26281.7
 09 11 2013  15 54  -21.0330 26049.9 -03487.5 -07.6253 26282.3
 09 11 2013  15 55  -21.0332 26048.8 -03487.0 -07.6244 26281.2
 09 11 2013  15 56  -21.0320 26047.7 -03486.6 -07.6241 26280.1
 09 11 2013  15 57  -21.0295 26048.3 -03487.0 -07.6246 26280.7
 09 11 2013  15 58  -21.0285 26047.7 -03486.8 -07.6244 26280.0
 09 11 2013  15 59  -21.0276 26048.5 -03487.2 -07.6251 26280.9
 09 11 2013  16 00  -21.0282 26050.1 -03488.0 -07.6263 26282.6
 09 11 2013  16 01  -21.0294 26051.7 -03488.6 -07.6271 26284.2
 09 11 2013  16 02  -21.0308 26053.6 -03489.1 -07.6277 26286.2
 09 11 2013  16 03  -21.0314 26054.8 -03489.0 -07.6272 26287.4
 09 11 2013  16 04  -21.0317 26055.1 -03488.5 -07.6258 26287.6
 09 11 2013  16 05  -21.0310 26055.3 -03488.0 -07.6249 26287.7
 09 11 2013  16 06  -21.0296 26055.6 -03487.9 -07.6245 26288.0
 09 11 2013  16 07  -21.0298 26055.5 -03487.7 -07.6240 26287.9
 09 11 2013  16 08  -21.0307 26056.3 -03487.8 -07.6240 26288.7
 09 11 2013  16 09  -21.0325 26056.7 -03487.5 -07.6234 26289.1
 09 11 2013  16 10  -21.0337 26056.6 -03487.1 -07.6224 26288.9
 09 11 2013  16 11  -21.0329 26055.9 -03486.2 -07.6208 26288.1
 09 11 2013  16 12  -21.0323 26055.1 -03485.6 -07.6197 26287.3
 09 11 2013  16 13  -21.0307 26054.2 -03485.0 -07.6186 26286.2
 09 11 2013  16 14  -21.0286 26053.6 -03484.6 -07.6179 26285.5
 09 11 2013  16 15  -21.0300 26052.6 -03484.5 -07.6180 26284.6
 09 11 2013  16 16  -21.0313 26051.8 -03484.4 -07.6181 26283.8
 09 11 2013  16 17  -21.0319 26051.5 -03484.8 -07.6189 26283.5
 09 11 2013  16 18  -21.0332 26051.2 -03485.2 -07.6200 26283.3
 09 11 2013  16 19  -21.0352 26053.1 -03486.5 -07.6222 26285.3
 09 11 2013  16 20  -21.0348 26053.9 -03486.8 -07.6226 26286.2
 09 11 2013  16 21  -21.0329 26050.9 -03485.2 -07.6200 26283.0
 09 11 2013  16 22  -21.0314 26048.1 -03483.9 -07.6180 26280.0
 09 11 2013  16 23  -21.0317 26045.9 -03483.2 -07.6172 26277.8
 09 11 2013  16 24  -21.0321 26046.2 -03483.9 -07.6186 26278.1
 09 11 2013  16 25  -21.0344 26046.6 -03484.8 -07.6203 26278.7
 09 11 2013  16 26  -21.0356 26047.9 -03485.6 -07.6216 26280.1
 09 11 2013  16 27  -21.0360 26049.6 -03486.2 -07.6226 26281.8
 09 11 2013  16 28  -21.0364 26050.3 -03486.2 -07.6223 26282.5
 09 11 2013  16 29  -21.0357 26050.3 -03485.9 -07.6216 26282.5
 09 11 2013  16 30  -21.0349 26050.8 -03486.0 -07.6217 26283.0
 09 11 2013  16 31  -21.0336 26048.6 -03484.9 -07.6200 26280.7
 09 11 2013  16 32  -21.0339 26046.3 -03483.9 -07.6185 26278.2
 09 11 2013  16 33  -21.0336 26043.8 -03482.9 -07.6172 26275.7
 09 11 2013  16 34  -21.0328 26041.5 -03482.3 -07.6164 26273.3
 09 11 2013  16 35  -21.0340 26038.5 -03481.6 -07.6159 26270.2
 09 11 2013  16 36  -21.0360 26036.7 -03481.7 -07.6165 26268.4
 09 11 2013  16 37  -21.0386 26036.9 -03482.6 -07.6184 26268.8
 09 11 2013  16 38  -21.0404 26037.8 -03483.5 -07.6201 26269.8
 09 11 2013  16 39  -21.0413 26038.5 -03483.9 -07.6209 26270.6
 09 11 2013  16 40  -21.0427 26039.6 -03484.5 -07.6217 26271.7
 09 11 2013  16 41  -21.0437 26040.2 -03484.6 -07.6219 26272.3
 09 11 2013  16 42  -21.0446 26040.7 -03484.6 -07.6217 26272.8
 09 11 2013  16 43  -21.0452 26041.0 -03484.6 -07.6215 26273.2
 09 11 2013  16 44  -21.0455 26040.9 -03484.3 -07.6210 26272.9
 09 11 2013  16 45  -21.0455 26040.3 -03484.0 -07.6205 26272.3
 09 11 2013  16 46  -21.0456 26040.3 -03484.0 -07.6205 26272.4
 09 11 2013  16 47  -21.0464 26040.3 -03484.1 -07.6207 26272.3
 09 11 2013  16 48  -21.0470 26040.0 -03484.0 -07.6205 26272.0
 09 11 2013  16 49  -21.0481 26040.0 -03483.9 -07.6204 26272.0
 09 11 2013  16 50  -21.0487 26039.5 -03483.7 -07.6200 26271.5
 09 11 2013  16 51  -21.0486 26039.7 -03483.8 -07.6201 26271.7
 09 11 2013  16 52  -21.0492 26039.3 -03483.6 -07.6200 26271.2
 09 11 2013  16 53  -21.0498 26038.3 -03483.2 -07.6194 26270.2
 09 11 2013  16 54  -21.0499 26038.1 -03483.2 -07.6194 26270.0
 09 11 2013  16 55  -21.0506 26038.0 -03483.2 -07.6195 26270.0
 09 11 2013  16 56  -21.0512 26038.0 -03483.3 -07.6195 26269.9
 09 11 2013  16 57  -21.0512 26038.1 -03483.2 -07.6195 26270.1
 09 11 2013  16 58  -21.0518 26038.7 -03483.4 -07.6196 26270.6
 09 11 2013  16 59  -21.0528 26038.6 -03483.1 -07.6191 26270.6
 09 11 2013  17 00  -21.0547 26038.1 -03482.6 -07.6181 26270.0
 09 11 2013  17 01  -21.0559 26038.1 -03482.4 -07.6176 26269.9
 09 11 2013  17 02  -21.0563 26037.3 -03481.9 -07.6168 26269.1
 09 11 2013  17 03  -21.0569 26037.1 -03481.9 -07.6168 26268.9
 09 11 2013  17 04  -21.0569 26037.4 -03481.9 -07.6169 26269.2
 09 11 2013  17 05  -21.0571 26037.8 -03482.0 -07.6168 26269.6
 09 11 2013  17 06  -21.0578 26038.2 -03482.0 -07.6167 26270.0
 09 11 2013  17 07  -21.0584 26038.2 -03481.8 -07.6163 26270.0
 09 11 2013  17 08  -21.0583 26037.2 -03481.2 -07.6154 26268.9
 09 11 2013  17 09  -21.0578 26036.6 -03480.9 -07.6148 26268.3
 09 11 2013  17 10  -21.0576 26036.0 -03480.7 -07.6147 26267.7
 09 11 2013  17 11  -21.0572 26035.5 -03480.6 -07.6146 26267.1
 09 11 2013  17 12  -21.0567 26034.7 -03480.5 -07.6145 26266.3
 09 11 2013  17 13  -21.0562 26034.5 -03480.5 -07.6146 26266.1
 09 11 2013  17 14  -21.0563 26034.7 -03480.7 -07.6150 26266.4
 09 11 2013  17 15  -21.0563 26034.6 -03480.7 -07.6150 26266.2
 09 11 2013  17 16  -21.0563 26034.4 -03480.7 -07.6151 26266.0
 09 11 2013  17 17  -21.0564 26034.8 -03481.0 -07.6155 26266.4
 09 11 2013  17 18  -21.0563 26035.2 -03481.2 -07.6159 26266.9
 09 11 2013  17 19  -21.0566 26035.2 -03481.2 -07.6159 26266.9
 09 11 2013  17 20  -21.0568 26035.2 -03481.1 -07.6158 26266.9
 09 11 2013  17 21  -21.0563 26034.6 -03480.8 -07.6152 26266.2
 09 11 2013  17 22  -21.0555 26033.8 -03480.5 -07.6148 26265.5
 09 11 2013  17 23  -21.0550 26033.1 -03480.4 -07.6147 26264.7
 09 11 2013  17 24  -21.0547 26032.9 -03480.4 -07.6149 26264.5
 09 11 2013  17 25  -21.0544 26032.9 -03480.5 -07.6151 26264.5
 09 11 2013  17 26  -21.0534 26032.5 -03480.5 -07.6151 26264.1
 09 11 2013  17 27  -21.0534 26032.7 -03480.7 -07.6155 26264.3
 09 11 2013  17 28  -21.0542 26032.9 -03480.9 -07.6159 26264.5
 09 11 2013  17 29  -21.0548 26033.2 -03481.2 -07.6164 26264.9
 09 11 2013  17 30  -21.0549 26033.3 -03481.2 -07.6164 26265.0
 09 11 2013  17 31  -21.0546 26033.1 -03481.1 -07.6163 26264.8
 09 11 2013  17 32  -21.0546 26033.0 -03481.1 -07.6163 26264.7
 09 11 2013  17 33  -21.0538 26032.5 -03480.9 -07.6161 26264.2
 09 11 2013  17 34  -21.0526 26032.2 -03480.9 -07.6162 26263.9
 09 11 2013  17 35  -21.0517 26031.8 -03480.9 -07.6163 26263.5
 09 11 2013  17 36  -21.0508 26031.3 -03480.9 -07.6164 26263.0
 09 11 2013  17 37  -21.0504 26031.4 -03481.1 -07.6169 26263.1
 09 11 2013  17 38  -21.0505 26031.5 -03481.3 -07.6173 26263.3
 09 11 2013  17 39  -21.0513 26031.9 -03481.5 -07.6176 26263.6
 09 11 2013  17 40  -21.0520 26031.8 -03481.6 -07.6177 26263.6
 09 11 2013  17 41  -21.0521 26031.0 -03481.3 -07.6174 26262.7
 09 11 2013  17 42  -21.0518 26029.9 -03480.9 -07.6169 26261.6
 09 11 2013  17 43  -21.0516 26029.2 -03480.9 -07.6170 26261.0
 09 11 2013  17 44  -21.0512 26028.8 -03481.0 -07.6172 26260.6
 09 11 2013  17 45  -21.0505 26028.7 -03481.2 -07.6178 26260.5
 09 11 2013  17 46  -21.0501 26028.7 -03481.4 -07.6182 26260.5
 09 11 2013  17 47  -21.0498 26028.9 -03481.7 -07.6187 26260.7
 09 11 2013  17 48  -21.0497 26029.2 -03481.9 -07.6192 26261.0
 09 11 2013  17 49  -21.0498 26029.4 -03482.1 -07.6196 26261.3
 09 11 2013  17 50  -21.0500 26029.4 -03482.2 -07.6197 26261.2
 09 11 2013  17 51  -21.0501 26029.1 -03482.2 -07.6198 26261.0
 09 11 2013  17 52  -21.0500 26028.7 -03482.2 -07.6199 26260.6
 09 11 2013  17 53  -21.0498 26028.1 -03482.1 -07.6199 26260.0
 09 11 2013  17 54  -21.0497 26027.7 -03482.1 -07.6201 26259.6
 09 11 2013  17 55  -21.0495 26027.7 -03482.3 -07.6204 26259.6
 09 11 2013  17 56  -21.0495 26027.7 -03482.5 -07.6209 26259.6
 09 11 2013  17 57  -21.0493 26027.8 -03482.8 -07.6215 26259.7
 09 11 2013  17 58  -21.0488 26028.0 -03483.1 -07.6221 26260.0
 09 11 2013  17 59  -21.0485 26027.6 -03483.1 -07.6221 26259.7
 09 11 2013  18 00  -21.0484 26027.1 -03482.9 -07.6220 26259.1
 09 11 2013  18 01  -21.0483 26026.9 -03483.0 -07.6222 26258.9
 09 11 2013  18 02  -21.0478 26026.3 -03482.9 -07.6222 26258.3
 09 11 2013  18 03  -21.0469 26025.4 -03482.8 -07.6222 26257.5
 09 11 2013  18 04  -21.0462 26025.3 -03483.1 -07.6228 26257.4
 09 11 2013  18 05  -21.0461 26025.4 -03483.4 -07.6236 26257.5
 09 11 2013  18 06  -21.0459 26025.8 -03483.8 -07.6243 26258.0
 09 11 2013  18 07  -21.0465 26025.6 -03484.0 -07.6247 26257.8
 09 11 2013  18 08  -21.0475 26026.2 -03484.4 -07.6255 26258.4
 09 11 2013  18 09  -21.0472 26026.4 -03484.7 -07.6260 26258.6
 09 11 2013  18 10  -21.0474 26026.0 -03484.7 -07.6262 26258.3
 09 11 2013  18 11  -21.0474 26025.8 -03484.8 -07.6263 26258.1
 09 11 2013  18 12  -21.0474 26025.7 -03484.9 -07.6268 26258.0
 09 11 2013  18 13  -21.0474 26025.0 -03484.8 -07.6267 26257.3
 09 11 2013  18 14  -21.0473 26024.3 -03484.7 -07.6266 26256.5
 09 11 2013  18 15  -21.0471 26024.0 -03484.8 -07.6270 26256.3
 09 11 2013  18 16  -21.0469 26023.3 -03484.8 -07.6271 26255.6
 09 11 2013  18 17  -21.0468 26022.9 -03484.9 -07.6275 26255.2
 09 11 2013  18 18  -21.0467 26023.3 -03485.3 -07.6283 26255.7
 09 11 2013  18 19  -21.0466 26023.8 -03485.8 -07.6292 26256.2
 09 11 2013  18 20  -21.0463 26024.2 -03486.1 -07.6298 26256.6
 09 11 2013  18 21  -21.0459 26023.9 -03486.1 -07.6299 26256.4
 09 11 2013  18 22  -21.0458 26023.4 -03486.0 -07.6298 26255.9
 09 11 2013  18 23  -21.0457 26023.3 -03486.2 -07.6301 26255.8
 09 11 2013  18 24  -21.0455 26023.2 -03486.3 -07.6305 26255.7
 09 11 2013  18 25  -21.0450 26022.7 -03486.4 -07.6307 26255.2
 09 11 2013  18 26  -21.0443 26022.1 -03486.3 -07.6307 26254.6
 09 11 2013  18 27  -21.0439 26021.7 -03486.4 -07.6310 26254.2
 09 11 2013  18 28  -21.0438 26021.7 -03486.6 -07.6315 26254.3
 09 11 2013  18 29  -21.0439 26021.6 -03486.8 -07.6319 26254.1
 09 11 2013  18 30  -21.0439 26021.2 -03486.8 -07.6322 26253.8
 09 11 2013  18 31  -21.0436 26020.9 -03486.9 -07.6324 26253.5
 09 11 2013  18 32  -21.0436 26020.4 -03486.9 -07.6325 26253.0
 09 11 2013  18 33  -21.0435 26020.0 -03487.0 -07.6328 26252.6
 09 11 2013  18 34  -21.0432 26020.0 -03487.2 -07.6333 26252.6
 09 11 2013  18 35  -21.0427 26020.1 -03487.5 -07.6338 26252.8
 09 11 2013  18 36  -21.0422 26020.2 -03487.7 -07.6343 26252.9
 09 11 2013  18 37  -21.0422 26020.2 -03487.9 -07.6346 26252.9
 09 11 2013  18 38  -21.0421 26020.1 -03487.9 -07.6348 26252.8
 09 11 2013  18 39  -21.0419 26019.9 -03488.0 -07.6350 26252.6
 09 11 2013  18 40  -21.0417 26019.5 -03488.0 -07.6352 26252.2
 09 11 2013  18 41  -21.0412 26019.0 -03488.0 -07.6353 26251.7
 09 11 2013  18 42  -21.0410 26018.5 -03488.1 -07.6356 26251.3
 09 11 2013  18 43  -21.0411 26018.3 -03488.3 -07.6362 26251.1
 09 11 2013  18 44  -21.0412 26018.2 -03488.5 -07.6367 26251.0
 09 11 2013  18 45  -21.0412 26018.1 -03488.7 -07.6372 26250.9
 09 11 2013  18 46  -21.0413 26017.9 -03488.9 -07.6376 26250.8
 09 11 2013  18 47  -21.0415 26017.8 -03489.2 -07.6382 26250.7
 09 11 2013  18 48  -21.0415 26017.8 -03489.4 -07.6386 26250.8
 09 11 2013  18 49  -21.0414 26017.9 -03489.6 -07.6391 26250.9
 09 11 2013  18 50  -21.0414 26017.8 -03489.8 -07.6396 26250.8
 09 11 2013  18 51  -21.0414 26017.5 -03489.9 -07.6398 26250.5
 09 11 2013  18 52  -21.0413 26017.2 -03490.0 -07.6400 26250.2
 09 11 2013  18 53  -21.0411 26017.1 -03490.2 -07.6405 26250.2
 09 11 2013  18 54  -21.0410 26016.5 -03490.1 -07.6407 26249.5
 09 11 2013  18 55  -21.0410 26016.1 -03490.2 -07.6409 26249.1
 09 11 2013  18 56  -21.0409 26015.8 -03490.4 -07.6414 26248.9
 09 11 2013  18 57  -21.0408 26015.6 -03490.6 -07.6418 26248.7
 09 11 2013  18 58  -21.0408 26015.4 -03490.7 -07.6422 26248.5
 09 11 2013  18 59  -21.0408 26015.3 -03490.9 -07.6427 26248.5
 09 11 2013  19 00  -21.0401 26015.8 -03491.4 -07.6435 26249.0
 09 11 2013  19 01  -21.0402 26015.9 -03491.7 -07.6442 26249.2
 09 11 2013  19 02  -21.0398 26015.4 -03491.6 -07.6442 26248.6
 09 11 2013  19 03  -21.0398 26015.1 -03491.7 -07.6445 26248.4
 09 11 2013  19 04  -21.0399 26014.2 -03491.5 -07.6443 26247.5
 09 11 2013  19 05  -21.0400 26013.4 -03491.4 -07.6442 26246.6
 09 11 2013  19 06  -21.0401 26013.4 -03491.7 -07.6449 26246.7
 09 11 2013  19 07  -21.0403 26013.5 -03492.0 -07.6456 26246.8
 09 11 2013  19 08  -21.0404 26013.5 -03492.3 -07.6461 26246.9
 09 11 2013  19 09  -21.0407 26013.5 -03492.4 -07.6465 26246.9
 09 11 2013  19 10  -21.0411 26013.4 -03492.6 -07.6469 26246.8
 09 11 2013  19 11  -21.0410 26013.3 -03492.7 -07.6470 26246.7
 09 11 2013  19 12  -21.0410 26013.0 -03492.8 -07.6473 26246.5
 09 11 2013  19 13  -21.0413 26012.3 -03492.5 -07.6471 26245.7
 09 11 2013  19 14  -21.0416 26011.8 -03492.4 -07.6470 26245.2
 09 11 2013  19 15  -21.0418 26011.6 -03492.6 -07.6473 26245.0
 09 11 2013  19 16  -21.0420 26011.3 -03492.6 -07.6475 26244.7
 09 11 2013  19 17  -21.0423 26011.2 -03492.8 -07.6479 26244.6
 09 11 2013  19 18  -21.0426 26011.4 -03493.1 -07.6484 26244.9
 09 11 2013  19 19  -21.0428 26011.8 -03493.4 -07.6491 26245.3
 09 11 2013  19 20  -21.0432 26011.2 -03493.3 -07.6489 26244.7
 09 11 2013  19 21  -21.0435 26010.7 -03493.2 -07.6489 26244.3
 09 11 2013  19 22  -21.0438 26010.7 -03493.3 -07.6492 26244.3
 09 11 2013  19 23  -21.0440 26010.8 -03493.5 -07.6496 26244.3
 09 11 2013  19 24  -21.0442 26010.7 -03493.7 -07.6499 26244.3
 09 11 2013  19 25  -21.0447 26010.7 -03493.8 -07.6503 26244.3
 09 11 2013  19 26  -21.0449 26010.6 -03493.9 -07.6505 26244.2
 09 11 2013  19 27  -21.0449 26010.4 -03493.9 -07.6506 26244.1
 09 11 2013  19 28  -21.0448 26010.1 -03493.9 -07.6507 26243.7
 09 11 2013  19 29  -21.0447 26009.8 -03493.9 -07.6508 26243.4
 09 11 2013  19 30  -21.0449 26009.7 -03494.0 -07.6511 26243.3
 09 11 2013  19 31  -21.0447 26009.5 -03494.1 -07.6513 26243.2
 09 11 2013  19 32  -21.0448 26009.4 -03494.3 -07.6516 26243.0
 09 11 2013  19 33  -21.0446 26009.0 -03494.2 -07.6517 26242.7
 09 11 2013  19 34  -21.0446 26008.7 -03494.3 -07.6519 26242.4
 09 11 2013  19 35  -21.0444 26008.5 -03494.3 -07.6521 26242.2
 09 11 2013  19 36  -21.0441 26008.1 -03494.3 -07.6521 26241.8
 09 11 2013  19 37  -21.0436 26007.8 -03494.3 -07.6522 26241.5
 09 11 2013  19 38  -21.0437 26007.5 -03494.3 -07.6523 26241.2
 09 11 2013  19 39  -21.0437 26007.4 -03494.4 -07.6526 26241.1
 09 11 2013  19 40  -21.0435 26007.3 -03494.5 -07.6528 26241.0
 09 11 2013  19 41  -21.0435 26007.0 -03494.5 -07.6529 26240.7
 09 11 2013  19 42  -21.0435 26007.0 -03494.7 -07.6532 26240.7
 09 11 2013  19 43  -21.0435 26007.1 -03494.9 -07.6537 26240.9
 09 11 2013  19 44  -21.0437 26007.0 -03495.0 -07.6539 26240.8
 09 11 2013  19 45  -21.0436 26006.6 -03494.9 -07.6539 26240.4
 09 11 2013  19 46  -21.0436 26006.4 -03494.9 -07.6540 26240.2
 09 11 2013  19 47  -21.0436 26006.4 -03495.1 -07.6543 26240.2
 09 11 2013  19 48  -21.0439 26006.4 -03495.2 -07.6546 26240.2
 09 11 2013  19 49  -21.0438 26006.2 -03495.3 -07.6548 26240.0
 09 11 2013  19 50  -21.0438 26005.9 -03495.3 -07.6550 26239.8
 09 11 2013  19 51  -21.0437 26005.8 -03495.4 -07.6551 26239.6
 09 11 2013  19 52  -21.0437 26005.9 -03495.5 -07.6554 26239.8
 09 11 2013  19 53  -21.0438 26005.7 -03495.6 -07.6556 26239.6
 09 11 2013  19 54  -21.0437 26005.4 -03495.5 -07.6554 26239.3
 09 11 2013  19 55  -21.0436 26005.5 -03495.7 -07.6558 26239.4
 09 11 2013  19 56  -21.0435 26005.4 -03495.8 -07.6562 26239.3
 09 11 2013  19 57  -21.0432 26005.2 -03495.9 -07.6564 26239.1
 09 11 2013  19 58  -21.0430 26004.6 -03495.8 -07.6563 26238.5
 09 11 2013  19 59  -21.0428 26004.4 -03495.8 -07.6564 26238.3
 09 11 2013  20 00  -21.0425 26004.5 -03496.1 -07.6570 26238.4
 09 11 2013  20 01  -21.0424 26004.9 -03496.5 -07.6578 26239.0
 09 11 2013  20 02  -21.0424 26005.2 -03496.8 -07.6584 26239.2
 09 11 2013  20 03  -21.0423 26005.2 -03497.1 -07.6589 26239.3
 09 11 2013  20 04  -21.0422 26005.1 -03497.2 -07.6592 26239.2
 09 11 2013  20 05  -21.0422 26004.7 -03497.2 -07.6594 26238.8
 09 11 2013  20 06  -21.0422 26004.2 -03497.2 -07.6594 26238.3
 09 11 2013  20 07  -21.0421 26004.0 -03497.3 -07.6597 26238.1
 09 11 2013  20 08  -21.0420 26003.6 -03497.3 -07.6598 26237.7
 09 11 2013  20 09  -21.0419 26003.1 -03497.2 -07.6598 26237.3
 09 11 2013  20 10  -21.0418 26003.0 -03497.4 -07.6602 26237.2
 09 11 2013  20 11  -21.0416 26003.1 -03497.6 -07.6606 26237.3
 09 11 2013  20 12  -21.0417 26003.1 -03497.8 -07.6610 26237.2
 09 11 2013  20 13  -21.0415 26002.9 -03497.8 -07.6611 26237.1
 09 11 2013  20 14  -21.0415 26002.6 -03497.8 -07.6613 26236.8
 09 11 2013  20 15  -21.0415 26002.3 -03497.8 -07.6613 26236.5
 09 11 2013  20 16  -21.0415 26002.5 -03498.0 -07.6617 26236.7
 09 11 2013  20 17  -21.0414 26003.0 -03498.4 -07.6624 26237.3
 09 11 2013  20 18  -21.0412 26003.2 -03498.6 -07.6628 26237.6
 09 11 2013  20 19  -21.0411 26003.4 -03498.8 -07.6631 26237.8
 09 11 2013  20 20  -21.0409 26003.6 -03498.9 -07.6634 26237.9
 09 11 2013  20 21  -21.0407 26003.8 -03499.1 -07.6638 26238.1
 09 11 2013  20 22  -21.0407 26003.8 -03499.2 -07.6639 26238.2
 09 11 2013  20 23  -21.0406 26003.7 -03499.2 -07.6640 26238.1
 09 11 2013  20 24  -21.0406 26003.4 -03499.1 -07.6639 26237.8
 09 11 2013  20 25  -21.0406 26003.3 -03499.1 -07.6640 26237.6
 09 11 2013  20 26  -21.0406 26002.8 -03499.0 -07.6638 26237.1
 09 11 2013  20 27  -21.0405 26002.7 -03499.0 -07.6638 26237.1
 09 11 2013  20 28  -21.0406 26002.5 -03499.0 -07.6638 26236.9
 09 11 2013  20 29  -21.0408 26002.5 -03499.0 -07.6640 26236.9
 09 11 2013  20 30  -21.0410 26002.6 -03499.2 -07.6643 26237.0
 09 11 2013  20 31  -21.0410 26002.6 -03499.3 -07.6646 26237.0
 09 11 2013  20 32  -21.0406 26002.4 -03499.3 -07.6646 26236.8
 09 11 2013  20 33  -21.0409 26002.2 -03499.2 -07.6644 26236.6
 09 11 2013  20 34  -21.0407 26002.1 -03499.2 -07.6645 26236.5
 09 11 2013  20 35  -21.0409 26002.1 -03499.3 -07.6647 26236.5
 09 11 2013  20 36  -21.0400 26002.2 -03499.4 -07.6649 26236.6
 09 11 2013  20 37  -21.0402 26002.5 -03499.6 -07.6652 26236.9
 09 11 2013  20 38  -21.0407 26002.4 -03499.6 -07.6653 26236.9
 09 11 2013  20 39  -21.0412 26002.1 -03499.5 -07.6652 26236.5
 09 11 2013  20 40  -21.0412 26001.5 -03499.3 -07.6649 26235.9
 09 11 2013  20 41  -21.0406 26001.2 -03499.2 -07.6647 26235.6
 09 11 2013  20 42  -21.0400 26001.3 -03499.3 -07.6649 26235.7
 09 11 2013  20 43  -21.0395 26001.8 -03499.6 -07.6654 26236.3
 09 11 2013  20 44  -21.0392 26001.6 -03499.6 -07.6655 26236.0
 09 11 2013  20 45  -21.0392 26001.5 -03499.6 -07.6655 26235.9
 09 11 2013  20 46  -21.0390 26001.0 -03499.4 -07.6652 26235.4
 09 11 2013  20 47  -21.0383 26000.8 -03499.3 -07.6651 26235.2
 09 11 2013  20 48  -21.0382 26000.8 -03499.4 -07.6652 26235.2
 09 11 2013  20 49  -21.0385 26000.9 -03499.5 -07.6655 26235.3
 09 11 2013  20 50  -21.0384 26001.1 -03499.8 -07.6660 26235.6
 09 11 2013  20 51  -21.0380 26001.1 -03499.9 -07.6662 26235.6
 09 11 2013  20 52  -21.0376 26000.8 -03499.8 -07.6662 26235.3
 09 11 2013  20 53  -21.0374 26000.8 -03499.9 -07.6663 26235.3
 09 11 2013  20 54  -21.0370 26000.8 -03500.0 -07.6665 26235.3
 09 11 2013  20 55  -21.0367 26001.0 -03500.2 -07.6669 26235.5
 09 11 2013  20 56  -21.0366 26001.0 -03500.3 -07.6672 26235.6
 09 11 2013  20 57  -21.0365 26001.0 -03500.5 -07.6675 26235.6
 09 11 2013  20 58  -21.0361 26001.3 -03500.7 -07.6679 26235.9
 09 11 2013  20 59  -21.0361 26001.0 -03500.8 -07.6681 26235.6
 09 11 2013  21 00  -21.0358 26000.3 -03500.4 -07.6677 26234.9
 09 11 2013  21 01  -21.0360 25999.8 -03500.3 -07.6675 26234.3
 09 11 2013  21 02  -21.0357 25999.8 -03500.3 -07.6676 26234.3
 09 11 2013  21 03  -21.0355 26000.1 -03500.6 -07.6680 26234.7
 09 11 2013  21 04  -21.0356 26000.2 -03500.7 -07.6683 26234.8
 09 11 2013  21 05  -21.0355 26000.6 -03501.0 -07.6688 26235.3
 09 11 2013  21 06  -21.0354 26000.9 -03501.3 -07.6693 26235.6
 09 11 2013  21 07  -21.0353 26000.8 -03501.3 -07.6693 26235.5
 09 11 2013  21 08  -21.0352 26000.6 -03501.2 -07.6692 26235.2
 09 11 2013  21 09  -21.0349 26000.3 -03501.0 -07.6690 26234.9
 09 11 2013  21 10  -21.0345 26000.3 -03501.0 -07.6690 26235.0
 09 11 2013  21 11  -21.0342 26000.4 -03501.1 -07.6691 26235.1
 09 11 2013  21 12  -21.0339 26000.6 -03501.2 -07.6693 26235.3
 09 11 2013  21 13  -21.0341 26000.9 -03501.5 -07.6698 26235.6
 09 11 2013  21 14  -21.0342 26001.1 -03501.7 -07.6701 26235.8
 09 11 2013  21 15  -21.0339 26001.3 -03501.8 -07.6703 26236.1
 09 11 2013  21 16  -21.0335 26001.4 -03501.8 -07.6704 26236.1
 09 11 2013  21 17  -21.0330 26001.3 -03501.7 -07.6702 26236.0
 09 11 2013  21 18  -21.0326 26001.2 -03501.8 -07.6703 26235.9
 09 11 2013  21 19  -21.0324 26001.1 -03501.8 -07.6704 26235.8
 09 11 2013  21 20  -21.0321 26001.1 -03501.9 -07.6705 26235.9
 09 11 2013  21 21  -21.0319 26001.3 -03502.0 -07.6708 26236.1
 09 11 2013  21 22  -21.0315 26001.3 -03502.1 -07.6710 26236.1
 09 11 2013  21 23  -21.0310 26001.4 -03502.2 -07.6711 26236.2
 09 11 2013  21 24  -21.0309 26001.1 -03502.2 -07.6711 26235.9
 09 11 2013  21 25  -21.0309 26000.8 -03502.1 -07.6711 26235.6
 09 11 2013  21 26  -21.0309 26000.1 -03501.8 -07.6707 26234.9
 09 11 2013  21 27  -21.0308 25999.6 -03501.6 -07.6704 26234.4
 09 11 2013  21 28  -21.0306 25999.4 -03501.6 -07.6703 26234.1
 09 11 2013  21 29  -21.0301 25999.9 -03501.9 -07.6709 26234.7
 09 11 2013  21 30  -21.0296 26000.4 -03502.2 -07.6715 26235.2
 09 11 2013  21 31  -21.0291 26000.8 -03502.6 -07.6721 26235.6
 09 11 2013  21 32  -21.0290 26000.9 -03502.7 -07.6724 26235.8
 09 11 2013  21 33  -21.0290 26000.6 -03502.6 -07.6723 26235.5
 09 11 2013  21 34  -21.0289 26000.3 -03502.6 -07.6722 26235.1
 09 11 2013  21 35  -21.0287 26000.0 -03502.4 -07.6721 26234.8
 09 11 2013  21 36  -21.0286 26000.4 -03502.6 -07.6724 26235.3
 09 11 2013  21 37  -21.0289 26000.6 -03502.9 -07.6728 26235.5
 09 11 2013  21 38  -21.0291 26000.6 -03502.9 -07.6730 26235.5
 09 11 2013  21 39  -21.0291 26000.5 -03502.9 -07.6730 26235.4
 09 11 2013  21 40  -21.0291 26000.4 -03502.9 -07.6730 26235.3
 09 11 2013  21 41  -21.0290 26000.3 -03502.9 -07.6730 26235.2
 09 11 2013  21 42  -21.0289 26000.3 -03502.9 -07.6730 26235.2
 09 11 2013  21 43  -21.0287 26000.3 -03503.0 -07.6732 26235.3
 09 11 2013  21 44  -21.0288 26000.2 -03503.0 -07.6733 26235.2
 09 11 2013  21 45  -21.0290 26000.1 -03503.0 -07.6733 26235.0
 09 11 2013  21 46  -21.0289 25999.9 -03502.9 -07.6732 26234.8
 09 11 2013  21 47  -21.0290 25999.7 -03502.9 -07.6731 26234.6
 09 11 2013  21 48  -21.0288 25999.6 -03502.9 -07.6731 26234.5
 09 11 2013  21 49  -21.0286 25999.8 -03503.0 -07.6733 26234.7
 09 11 2013  21 50  -21.0285 25999.9 -03503.1 -07.6736 26234.9
 09 11 2013  21 51  -21.0284 26000.0 -03503.2 -07.6738 26235.0
 09 11 2013  21 52  -21.0281 26000.2 -03503.4 -07.6740 26235.2
 09 11 2013  21 53  -21.0279 26000.4 -03503.5 -07.6742 26235.4
 09 11 2013  21 54  -21.0278 26000.5 -03503.6 -07.6744 26235.5
 09 11 2013  21 55  -21.0277 26000.5 -03503.7 -07.6745 26235.5
 09 11 2013  21 56  -21.0276 26000.6 -03503.8 -07.6748 26235.6
 09 11 2013  21 57  -21.0272 26000.5 -03503.7 -07.6747 26235.5
 09 11 2013  21 58  -21.0271 26000.2 -03503.6 -07.6746 26235.2
 09 11 2013  21 59  -21.0269 25999.9 -03503.6 -07.6745 26234.9
 09 11 2013  22 00  -21.0266 25999.9 -03503.6 -07.6745 26234.9
 09 11 2013  22 01  -21.0265 25999.9 -03503.6 -07.6746 26234.9
 09 11 2013  22 02  -21.0264 25999.9 -03503.7 -07.6747 26234.9
 09 11 2013  22 03  -21.0262 26000.0 -03503.8 -07.6750 26235.0
 09 11 2013  22 04  -21.0260 26000.1 -03503.9 -07.6751 26235.1
 09 11 2013  22 05  -21.0259 25999.9 -03503.8 -07.6751 26234.9
 09 11 2013  22 06  -21.0259 25999.7 -03503.8 -07.6752 26234.8
 09 11 2013  22 07  -21.0257 25999.7 -03503.9 -07.6753 26234.8
 09 11 2013  22 08  -21.0257 25999.6 -03503.9 -07.6753 26234.7
 09 11 2013  22 09  -21.0258 25999.5 -03503.9 -07.6754 26234.5
 09 11 2013  22 10  -21.0257 25999.3 -03503.9 -07.6754 26234.4
 09 11 2013  22 11  -21.0256 25999.2 -03503.8 -07.6753 26234.3
 09 11 2013  22 12  -21.0256 25999.2 -03503.9 -07.6754 26234.3
 09 11 2013  22 13  -21.0256 25999.4 -03504.0 -07.6757 26234.4
 09 11 2013  22 14  -21.0255 25999.6 -03504.2 -07.6760 26234.7
 09 11 2013  22 15  -21.0253 25999.8 -03504.3 -07.6762 26234.9
 09 11 2013  22 16  -21.0251 25999.9 -03504.5 -07.6764 26235.1
 09 11 2013  22 17  -21.0249 26000.0 -03504.5 -07.6766 26235.1
 09 11 2013  22 18  -21.0245 25999.9 -03504.5 -07.6766 26235.0
 09 11 2013  22 19  -21.0244 25999.8 -03504.5 -07.6765 26234.9
 09 11 2013  22 20  -21.0243 25999.5 -03504.3 -07.6763 26234.6
 09 11 2013  22 21  -21.0241 25999.4 -03504.3 -07.6762 26234.4
 09 11 2013  22 22  -21.0239 25999.3 -03504.3 -07.6763 26234.4
 09 11 2013  22 23  -21.0233 25999.5 -03504.4 -07.6765 26234.7
 09 11 2013  22 24  -21.0230 25999.8 -03504.6 -07.6768 26234.9
 09 11 2013  22 25  -21.0228 26000.0 -03504.7 -07.6770 26235.1
 09 11 2013  22 26  -21.0228 25999.8 -03504.8 -07.6772 26235.0
 09 11 2013  22 27  -21.0226 25999.7 -03504.8 -07.6772 26234.9
 09 11 2013  22 28  -21.0227 25999.6 -03504.7 -07.6772 26234.7
 09 11 2013  22 29  -21.0226 25999.4 -03504.7 -07.6770 26234.6
 09 11 2013  22 30  -21.0226 25999.2 -03504.6 -07.6770 26234.4
 09 11 2013  22 31  -21.0227 25999.2 -03504.6 -07.6771 26234.3
 09 11 2013  22 32  -21.0226 25999.2 -03504.6 -07.6770 26234.3
 09 11 2013  22 33  -21.0225 25999.2 -03504.6 -07.6771 26234.3
 09 11 2013  22 34  -21.0226 25999.1 -03504.7 -07.6773 26234.3
 09 11 2013  22 35  -21.0227 25999.0 -03504.7 -07.6773 26234.2
 09 11 2013  22 36  -21.0228 25999.0 -03504.7 -07.6773 26234.2
 09 11 2013  22 37  -21.0231 25999.0 -03504.8 -07.6774 26234.2
 09 11 2013  22 38  -21.0233 25998.9 -03504.7 -07.6774 26234.1
 09 11 2013  22 39  -21.0235 25999.0 -03504.8 -07.6774 26234.2
 09 11 2013  22 40  -21.0237 25999.0 -03504.8 -07.6776 26234.2
 09 11 2013  22 41  -21.0237 25999.0 -03504.8 -07.6775 26234.2
 09 11 2013  22 42  -21.0236 25998.9 -03504.8 -07.6774 26234.1
 09 11 2013  22 43  -21.0235 25998.8 -03504.8 -07.6774 26234.0
 09 11 2013  22 44  -21.0235 25999.0 -03504.9 -07.6776 26234.2
 09 11 2013  22 45  -21.0233 25999.4 -03505.1 -07.6779 26234.6
 09 11 2013  22 46  -21.0229 25999.0 -03504.9 -07.6776 26234.1
 09 11 2013  22 47  -21.0226 25999.3 -03505.0 -07.6778 26234.5
 09 11 2013  22 48  -21.0224 25999.6 -03505.2 -07.6781 26234.8
 09 11 2013  22 49  -21.0223 26000.1 -03505.5 -07.6786 26235.4
 09 11 2013  22 50  -21.0221 26000.4 -03505.6 -07.6789 26235.7
 09 11 2013  22 51  -21.0220 26000.2 -03505.6 -07.6788 26235.5
 09 11 2013  22 52  -21.0220 26000.0 -03505.5 -07.6787 26235.2
 09 11 2013  22 53  -21.0221 25999.7 -03505.4 -07.6785 26235.0
 09 11 2013  22 54  -21.0220 25999.6 -03505.3 -07.6783 26234.9
 09 11 2013  22 55  -21.0219 25999.6 -03505.2 -07.6783 26234.8
 09 11 2013  22 56  -21.0219 25999.7 -03505.3 -07.6784 26234.9
 09 11 2013  22 57  -21.0216 25999.8 -03505.4 -07.6785 26235.0
 09 11 2013  22 58  -21.0212 25999.9 -03505.4 -07.6786 26235.1
 09 11 2013  22 59  -21.0208 25999.8 -03505.4 -07.6786 26235.1
 09 11 2013  23 00  -21.0205 25999.4 -03505.2 -07.6783 26234.6
 09 11 2013  23 01  -21.0204 25999.2 -03505.1 -07.6782 26234.4
 09 11 2013  23 02  -21.0201 25999.3 -03505.2 -07.6782 26234.5
 09 11 2013  23 03  -21.0201 25999.4 -03505.4 -07.6786 26234.6
 09 11 2013  23 04  -21.0204 25999.2 -03505.2 -07.6784 26234.4
 09 11 2013  23 05  -21.0205 25999.1 -03505.3 -07.6786 26234.4
 09 11 2013  23 06  -21.0211 25999.2 -03505.4 -07.6787 26234.4
 09 11 2013  23 07  -21.0214 25999.5 -03505.6 -07.6791 26234.8
 09 11 2013  23 08  -21.0220 25999.5 -03505.7 -07.6792 26234.8
 09 11 2013  23 09  -21.0222 25999.7 -03505.7 -07.6792 26235.0
 09 11 2013  23 10  -21.0223 25999.6 -03505.6 -07.6791 26234.9
 09 11 2013  23 11  -21.0222 25999.5 -03505.5 -07.6788 26234.7
 09 11 2013  23 12  -21.0227 25999.4 -03505.4 -07.6787 26234.6
 09 11 2013  23 13  -21.0230 25999.2 -03505.4 -07.6786 26234.4
 09 11 2013  23 14  -21.0232 25999.0 -03505.2 -07.6783 26234.2
 09 11 2013  23 15  -21.0232 25999.0 -03505.2 -07.6783 26234.2
 09 11 2013  23 16  -21.0231 25999.1 -03505.2 -07.6783 26234.3
 09 11 2013  23 17  -21.0231 25999.0 -03505.1 -07.6782 26234.3
 09 11 2013  23 18  -21.0230 25999.2 -03505.2 -07.6783 26234.4
 09 11 2013  23 19  -21.0226 25999.7 -03505.4 -07.6785 26235.0
 09 11 2013  23 20  -21.0223 25999.9 -03505.5 -07.6787 26235.2
 09 11 2013  23 21  -21.0218 26000.2 -03505.5 -07.6788 26235.4
 09 11 2013  23 22  -21.0216 25999.9 -03505.4 -07.6785 26235.1
 09 11 2013  23 23  -21.0216 25999.7 -03505.3 -07.6784 26235.0
 09 11 2013  23 24  -21.0219 25999.5 -03505.2 -07.6782 26234.7
 09 11 2013  23 25  -21.0222 25999.2 -03505.1 -07.6780 26234.4
 09 11 2013  23 26  -21.0223 25999.0 -03504.9 -07.6778 26234.2
 09 11 2013  23 27  -21.0224 25999.1 -03505.0 -07.6778 26234.2
 09 11 2013  23 28  -21.0226 25999.3 -03505.1 -07.6780 26234.5
 09 11 2013  23 29  -21.0226 25999.6 -03505.2 -07.6782 26234.9
 09 11 2013  23 30  -21.0227 25999.6 -03505.3 -07.6783 26234.8
 09 11 2013  23 31  -21.0229 25999.5 -03505.2 -07.6781 26234.7
 09 11 2013  23 32  -21.0232 25999.2 -03505.0 -07.6779 26234.4
 09 11 2013  23 33  -21.0234 25998.9 -03504.9 -07.6776 26234.1
 09 11 2013  23 34  -21.0236 25998.7 -03504.8 -07.6775 26233.9
 09 11 2013  23 35  -21.0236 25998.7 -03504.7 -07.6775 26233.8
 09 11 2013  23 36  -21.0237 25998.7 -03504.8 -07.6775 26233.8
 09 11 2013  23 37  -21.0235 25998.7 -03504.8 -07.6775 26233.9
 09 11 2013  23 38  -21.0231 25998.8 -03504.8 -07.6776 26234.0
 09 11 2013  23 39  -21.0227 25999.0 -03504.9 -07.6778 26234.2
 09 11 2013  23 40  -21.0226 25999.2 -03505.1 -07.6780 26234.4
 09 11 2013  23 41  -21.0229 25999.3 -03505.2 -07.6783 26234.5
 09 11 2013  23 42  -21.0231 25999.2 -03505.2 -07.6783 26234.4
 09 11 2013  23 43  -21.0231 25999.0 -03505.1 -07.6782 26234.2
 09 11 2013  23 44  -21.0228 25999.1 -03505.1 -07.6782 26234.3
 09 11 2013  23 45  -21.0226 25999.2 -03505.2 -07.6783 26234.4
 09 11 2013  23 46  -21.0225 25999.2 -03505.2 -07.6784 26234.4
 09 11 2013  23 47  -21.0224 25999.2 -03505.3 -07.6785 26234.5
 09 11 2013  23 48  -21.0223 25999.3 -03505.4 -07.6786 26234.6
 09 11 2013  23 49  -21.0221 25999.4 -03505.4 -07.6787 26234.7
 09 11 2013  23 50  -21.0214 25999.8 -03505.5 -07.6789 26235.1
 09 11 2013  23 51  -21.0210 25999.6 -03505.5 -07.6788 26234.8
 09 11 2013  23 52  -21.0209 25999.4 -03505.4 -07.6786 26234.6
 09 11 2013  23 53  -21.0208 25999.3 -03505.4 -07.6787 26234.6
 09 11 2013  23 54  -21.0206 25999.2 -03505.4 -07.6786 26234.5
 09 11 2013  23 55  -21.0202 25999.1 -03505.3 -07.6786 26234.4
 09 11 2013  23 56  -21.0199 25999.2 -03505.4 -07.6787 26234.4
 09 11 2013  23 57  -21.0198 25999.1 -03505.4 -07.6787 26234.4
