SAO LUIS EMBRACE-03 <153> 1 Min. Reported data

 DD MM YYYY  HH MM   D(Deg)  H(nT)   Z(nT)   I(Deg)   F(nT)

 02 06 2013  00 00  -21.0566 26000.1 -03447.8 -07.5537 26227.7
 02 06 2013  00 01  -21.0557 26000.0 -03447.7 -07.5535 26227.6
 02 06 2013  00 02  -21.0548 25999.8 -03447.6 -07.5534 26227.4
 02 06 2013  00 03  -21.0543 25999.8 -03447.6 -07.5534 26227.3
 02 06 2013  00 04  -21.0542 26000.0 -03447.8 -07.5537 26227.6
 02 06 2013  00 05  -21.0542 26000.2 -03447.9 -07.5540 26227.9
 02 06 2013  00 06  -21.0542 26000.4 -03448.0 -07.5542 26228.0
 02 06 2013  00 07  -21.0543 26000.3 -03448.0 -07.5542 26227.9
 02 06 2013  00 08  -21.0544 26000.2 -03448.0 -07.5541 26227.9
 02 06 2013  00 09  -21.0542 26000.3 -03448.0 -07.5541 26227.9
 02 06 2013  00 10  -21.0541 26000.3 -03448.0 -07.5541 26228.0
 02 06 2013  00 11  -21.0541 26000.3 -03448.0 -07.5541 26227.9
 02 06 2013  00 12  -21.0542 26000.2 -03448.0 -07.5541 26227.8
 02 06 2013  00 13  -21.0541 26000.1 -03447.9 -07.5540 26227.7
 02 06 2013  00 14  -21.0541 26000.4 -03448.0 -07.5541 26228.0
 02 06 2013  00 15  -21.0540 26001.3 -03448.5 -07.5549 26229.0
 02 06 2013  00 16  -21.0539 26002.3 -03449.0 -07.5556 26230.1
 02 06 2013  00 17  -21.0541 26003.4 -03449.5 -07.5565 26231.1
 02 06 2013  00 18  -21.0547 26004.3 -03450.0 -07.5572 26232.2
 02 06 2013  00 19  -21.0561 26004.4 -03450.0 -07.5574 26232.2
 02 06 2013  00 20  -21.0587 26003.4 -03449.6 -07.5567 26231.3
 02 06 2013  00 21  -21.0617 26002.4 -03449.0 -07.5557 26230.1
 02 06 2013  00 22  -21.0636 26001.3 -03448.4 -07.5546 26229.0
 02 06 2013  00 23  -21.0645 26000.6 -03447.7 -07.5535 26228.2
 02 06 2013  00 24  -21.0654 26000.0 -03447.3 -07.5527 26227.6
 02 06 2013  00 25  -21.0658 25999.7 -03447.0 -07.5521 26227.2
 02 06 2013  00 26  -21.0657 25999.9 -03447.0 -07.5520 26227.4
 02 06 2013  00 27  -21.0654 26000.4 -03447.2 -07.5523 26227.9
 02 06 2013  00 28  -21.0649 26000.9 -03447.4 -07.5526 26228.5
 02 06 2013  00 29  -21.0647 26001.1 -03447.4 -07.5527 26228.6
 02 06 2013  00 30  -21.0652 26000.8 -03447.3 -07.5525 26228.4
 02 06 2013  00 31  -21.0660 26000.1 -03447.0 -07.5520 26227.6
 02 06 2013  00 32  -21.0674 25999.1 -03446.6 -07.5513 26226.5
 02 06 2013  00 33  -21.0689 25998.6 -03446.3 -07.5510 26226.1
 02 06 2013  00 34  -21.0699 25998.7 -03446.4 -07.5510 26226.2
 02 06 2013  00 35  -21.0702 25998.8 -03446.4 -07.5511 26226.3
 02 06 2013  00 36  -21.0698 25999.3 -03446.5 -07.5512 26226.8
 02 06 2013  00 37  -21.0691 26000.6 -03447.0 -07.5520 26228.1
 02 06 2013  00 38  -21.0685 26001.5 -03447.5 -07.5526 26229.1
 02 06 2013  00 39  -21.0683 26002.1 -03447.7 -07.5530 26229.7
 02 06 2013  00 40  -21.0690 26002.2 -03447.7 -07.5530 26229.8
 02 06 2013  00 41  -21.0699 26001.7 -03447.5 -07.5527 26229.2
 02 06 2013  00 42  -21.0706 26000.7 -03446.9 -07.5517 26228.2
 02 06 2013  00 43  -21.0712 26000.0 -03446.4 -07.5508 26227.4
 02 06 2013  00 44  -21.0708 25999.4 -03446.0 -07.5500 26226.8
 02 06 2013  00 45  -21.0698 25998.7 -03445.5 -07.5492 26226.1
 02 06 2013  00 46  -21.0682 25998.0 -03445.1 -07.5485 26225.3
 02 06 2013  00 47  -21.0663 25997.5 -03444.8 -07.5479 26224.7
 02 06 2013  00 48  -21.0649 25996.9 -03444.5 -07.5476 26224.1
 02 06 2013  00 49  -21.0645 25996.4 -03444.4 -07.5475 26223.6
 02 06 2013  00 50  -21.0649 25996.1 -03444.5 -07.5478 26223.3
 02 06 2013  00 51  -21.0651 25996.1 -03444.7 -07.5482 26223.4
 02 06 2013  00 52  -21.0650 25996.5 -03445.0 -07.5487 26223.8
 02 06 2013  00 53  -21.0652 25996.7 -03445.2 -07.5491 26224.0
 02 06 2013  00 54  -21.0654 25997.1 -03445.5 -07.5496 26224.5
 02 06 2013  00 55  -21.0657 25997.4 -03445.7 -07.5500 26224.8
 02 06 2013  00 56  -21.0659 25997.3 -03445.7 -07.5500 26224.6
 02 06 2013  00 57  -21.0657 25997.4 -03445.8 -07.5501 26224.8
 02 06 2013  00 58  -21.0652 25997.7 -03445.9 -07.5503 26225.1
 02 06 2013  00 59  -21.0649 25998.0 -03446.1 -07.5506 26225.4
 02 06 2013  01 00  -21.0653 25998.0 -03446.2 -07.5508 26225.4
 02 06 2013  01 01  -21.0654 25998.2 -03446.3 -07.5509 26225.6
 02 06 2013  01 02  -21.0654 25998.3 -03446.3 -07.5510 26225.7
 02 06 2013  01 03  -21.0657 25998.5 -03446.4 -07.5511 26226.0
 02 06 2013  01 04  -21.0667 25998.5 -03446.4 -07.5512 26226.0
 02 06 2013  01 05  -21.0681 25997.6 -03446.0 -07.5506 26225.0
 02 06 2013  01 06  -21.0689 25996.4 -03445.3 -07.5495 26223.7
 02 06 2013  01 07  -21.0693 25996.0 -03445.0 -07.5488 26223.2
 02 06 2013  01 08  -21.0704 25995.4 -03444.7 -07.5483 26222.6
 02 06 2013  01 09  -21.0704 25994.7 -03444.3 -07.5477 26221.9
 02 06 2013  01 10  -21.0709 25994.2 -03444.0 -07.5472 26221.3
 02 06 2013  01 11  -21.0714 25994.7 -03444.2 -07.5475 26221.9
 02 06 2013  01 12  -21.0718 25994.9 -03444.4 -07.5479 26222.1
 02 06 2013  01 13  -21.0706 25993.8 -03443.8 -07.5468 26220.9
 02 06 2013  01 14  -21.0689 25992.7 -03443.1 -07.5456 26219.7
 02 06 2013  01 15  -21.0677 25991.7 -03442.5 -07.5447 26218.7
 02 06 2013  01 16  -21.0662 25990.2 -03441.8 -07.5437 26217.1
 02 06 2013  01 17  -21.0644 25989.0 -03441.3 -07.5428 26215.9
 02 06 2013  01 18  -21.0621 25988.6 -03441.1 -07.5426 26215.4
 02 06 2013  01 19  -21.0597 25988.3 -03441.1 -07.5427 26215.1
 02 06 2013  01 20  -21.0579 25988.1 -03441.3 -07.5430 26215.0
 02 06 2013  01 21  -21.0562 25988.7 -03441.8 -07.5440 26215.6
 02 06 2013  01 22  -21.0540 25989.4 -03442.4 -07.5451 26216.4
 02 06 2013  01 23  -21.0518 25990.5 -03443.2 -07.5465 26217.6
 02 06 2013  01 24  -21.0497 25991.3 -03443.8 -07.5477 26218.5
 02 06 2013  01 25  -21.0479 25992.6 -03444.6 -07.5491 26219.8
 02 06 2013  01 26  -21.0463 25994.4 -03445.7 -07.5509 26221.8
 02 06 2013  01 27  -21.0449 25996.3 -03446.9 -07.5528 26223.8
 02 06 2013  01 28  -21.0437 25997.6 -03447.7 -07.5542 26225.2
 02 06 2013  01 29  -21.0426 25999.6 -03448.8 -07.5560 26227.3
 02 06 2013  01 30  -21.0417 26000.9 -03449.4 -07.5571 26228.7
 02 06 2013  01 31  -21.0414 26002.5 -03450.2 -07.5582 26230.4
 02 06 2013  01 32  -21.0413 26004.0 -03450.9 -07.5593 26232.0
 02 06 2013  01 33  -21.0404 26005.7 -03451.6 -07.5603 26233.7
 02 06 2013  01 34  -21.0397 26007.2 -03452.1 -07.5611 26235.3
 02 06 2013  01 35  -21.0391 26008.3 -03452.5 -07.5616 26236.5
 02 06 2013  01 36  -21.0387 26009.5 -03452.9 -07.5621 26237.7
 02 06 2013  01 37  -21.0379 26010.6 -03453.2 -07.5625 26238.8
 02 06 2013  01 38  -21.0375 26011.4 -03453.5 -07.5627 26239.7
 02 06 2013  01 39  -21.0371 26012.4 -03453.8 -07.5631 26240.7
 02 06 2013  01 40  -21.0370 26012.5 -03453.7 -07.5630 26240.8
 02 06 2013  01 41  -21.0382 26012.6 -03453.6 -07.5628 26240.8
 02 06 2013  01 42  -21.0393 26012.2 -03453.3 -07.5622 26240.4
 02 06 2013  01 43  -21.0400 26011.6 -03452.9 -07.5614 26239.8
 02 06 2013  01 44  -21.0403 26011.2 -03452.4 -07.5606 26239.4
 02 06 2013  01 45  -21.0403 26011.2 -03452.2 -07.5602 26239.3
 02 06 2013  01 46  -21.0403 26010.6 -03451.9 -07.5596 26238.6
 02 06 2013  01 47  -21.0408 26009.5 -03451.3 -07.5587 26237.5
 02 06 2013  01 48  -21.0417 26008.2 -03450.7 -07.5578 26236.1
 02 06 2013  01 49  -21.0427 26007.2 -03450.2 -07.5569 26235.1
 02 06 2013  01 50  -21.0438 26006.5 -03449.8 -07.5563 26234.3
 02 06 2013  01 51  -21.0445 26006.3 -03449.8 -07.5562 26234.1
 02 06 2013  01 52  -21.0449 26006.0 -03449.7 -07.5562 26233.9
 02 06 2013  01 53  -21.0450 26005.7 -03449.6 -07.5560 26233.5
 02 06 2013  01 54  -21.0452 26005.5 -03449.5 -07.5559 26233.3
 02 06 2013  01 55  -21.0455 26005.9 -03449.7 -07.5563 26233.7
 02 06 2013  01 56  -21.0464 26006.6 -03450.2 -07.5570 26234.5
 02 06 2013  01 57  -21.0473 26007.4 -03450.6 -07.5577 26235.3
 02 06 2013  01 58  -21.0483 26007.8 -03450.8 -07.5581 26235.7
 02 06 2013  01 59  -21.0495 26008.3 -03451.0 -07.5584 26236.2
 02 06 2013  02 00  -21.0504 26008.6 -03451.1 -07.5584 26236.6
 02 06 2013  02 01  -21.0515 26008.5 -03451.0 -07.5582 26236.4
 02 06 2013  02 02  -21.0520 26008.6 -03450.9 -07.5580 26236.5
 02 06 2013  02 03  -21.0516 26008.0 -03450.3 -07.5569 26235.9
 02 06 2013  02 04  -21.0507 26007.9 -03450.0 -07.5562 26235.7
 02 06 2013  02 05  -21.0497 26008.5 -03450.1 -07.5563 26236.3
 02 06 2013  02 06  -21.0490 26009.1 -03450.4 -07.5568 26236.9
 02 06 2013  02 07  -21.0487 26009.0 -03450.3 -07.5567 26236.9
 02 06 2013  02 08  -21.0481 26009.5 -03450.4 -07.5568 26237.3
 02 06 2013  02 09  -21.0470 26009.8 -03450.5 -07.5568 26237.6
 02 06 2013  02 10  -21.0457 26010.2 -03450.6 -07.5569 26238.0
 02 06 2013  02 11  -21.0462 26009.5 -03450.3 -07.5565 26237.3
 02 06 2013  02 12  -21.0473 26008.4 -03449.8 -07.5558 26236.2
 02 06 2013  02 13  -21.0479 26007.2 -03449.2 -07.5547 26234.9
 02 06 2013  02 14  -21.0480 26006.1 -03448.5 -07.5536 26233.7
 02 06 2013  02 15  -21.0482 26005.6 -03448.2 -07.5531 26233.2
 02 06 2013  02 16  -21.0487 26005.5 -03448.2 -07.5531 26233.1
 02 06 2013  02 17  -21.0493 26005.7 -03448.4 -07.5534 26233.3
 02 06 2013  02 18  -21.0499 26006.0 -03448.6 -07.5538 26233.7
 02 06 2013  02 19  -21.0510 26006.4 -03448.9 -07.5542 26234.1
 02 06 2013  02 20  -21.0523 26006.6 -03449.0 -07.5545 26234.3
 02 06 2013  02 21  -21.0538 26006.8 -03449.1 -07.5547 26234.5
 02 06 2013  02 22  -21.0557 26007.2 -03449.3 -07.5550 26234.9
 02 06 2013  02 23  -21.0575 26007.6 -03449.5 -07.5552 26235.4
 02 06 2013  02 24  -21.0591 26008.0 -03449.6 -07.5553 26235.8
 02 06 2013  02 25  -21.0601 26008.4 -03449.7 -07.5554 26236.2
 02 06 2013  02 26  -21.0606 26009.3 -03449.8 -07.5555 26237.1
 02 06 2013  02 27  -21.0610 26010.5 -03450.3 -07.5561 26238.3
 02 06 2013  02 28  -21.0615 26011.5 -03450.6 -07.5566 26239.4
 02 06 2013  02 29  -21.0625 26012.3 -03450.9 -07.5570 26240.2
 02 06 2013  02 30  -21.0642 26013.3 -03451.3 -07.5575 26241.3
 02 06 2013  02 31  -21.0663 26013.7 -03451.3 -07.5575 26241.6
 02 06 2013  02 32  -21.0680 26013.3 -03450.9 -07.5566 26241.2
 02 06 2013  02 33  -21.0685 26013.0 -03450.4 -07.5556 26240.9
 02 06 2013  02 34  -21.0687 26012.4 -03449.8 -07.5544 26240.2
 02 06 2013  02 35  -21.0688 26011.3 -03448.9 -07.5530 26238.9
 02 06 2013  02 36  -21.0684 26009.2 -03447.7 -07.5509 26236.7
 02 06 2013  02 37  -21.0673 26007.6 -03446.7 -07.5491 26235.0
 02 06 2013  02 38  -21.0668 26006.6 -03446.1 -07.5482 26233.9
 02 06 2013  02 39  -21.0663 26005.6 -03445.7 -07.5476 26232.9
 02 06 2013  02 40  -21.0654 26004.8 -03445.3 -07.5470 26232.1
 02 06 2013  02 41  -21.0643 26004.3 -03445.1 -07.5468 26231.5
 02 06 2013  02 42  -21.0630 26003.9 -03445.1 -07.5467 26231.1
 02 06 2013  02 43  -21.0620 26003.8 -03445.2 -07.5470 26231.0
 02 06 2013  02 44  -21.0613 26004.1 -03445.5 -07.5476 26231.4
 02 06 2013  02 45  -21.0609 26004.4 -03445.8 -07.5483 26231.7
 02 06 2013  02 46  -21.0606 26004.6 -03446.2 -07.5489 26232.0
 02 06 2013  02 47  -21.0608 26004.8 -03446.4 -07.5494 26232.2
 02 06 2013  02 48  -21.0614 26005.2 -03446.7 -07.5500 26232.6
 02 06 2013  02 49  -21.0626 26005.7 -03447.1 -07.5507 26233.2
 02 06 2013  02 50  -21.0641 26006.3 -03447.5 -07.5514 26233.8
 02 06 2013  02 51  -21.0659 26006.6 -03447.8 -07.5518 26234.2
 02 06 2013  02 52  -21.0676 26007.1 -03448.0 -07.5521 26234.6
 02 06 2013  02 53  -21.0690 26007.6 -03448.1 -07.5523 26235.1
 02 06 2013  02 54  -21.0705 26008.7 -03448.6 -07.5529 26236.4
 02 06 2013  02 55  -21.0719 26008.8 -03448.6 -07.5530 26236.5
 02 06 2013  02 56  -21.0741 26008.5 -03448.3 -07.5525 26236.1
 02 06 2013  02 57  -21.0752 26008.7 -03448.2 -07.5521 26236.3
 02 06 2013  02 58  -21.0754 26008.9 -03448.0 -07.5517 26236.5
 02 06 2013  02 59  -21.0764 26009.0 -03447.9 -07.5514 26236.6
 02 06 2013  03 00  -21.0779 26009.3 -03447.9 -07.5514 26236.8
 02 06 2013  03 01  -21.0790 26009.3 -03447.8 -07.5510 26236.8
 02 06 2013  03 02  -21.0798 26008.8 -03447.4 -07.5503 26236.3
 02 06 2013  03 03  -21.0809 26008.4 -03447.0 -07.5496 26235.9
 02 06 2013  03 04  -21.0817 26007.8 -03446.5 -07.5488 26235.2
 02 06 2013  03 05  -21.0822 26007.1 -03446.0 -07.5479 26234.4
 02 06 2013  03 06  -21.0826 26006.3 -03445.5 -07.5470 26233.5
 02 06 2013  03 07  -21.0819 26005.9 -03445.2 -07.5463 26233.1
 02 06 2013  03 08  -21.0809 26005.9 -03445.0 -07.5461 26233.1
 02 06 2013  03 09  -21.0802 26006.0 -03445.1 -07.5462 26233.2
 02 06 2013  03 10  -21.0796 26006.3 -03445.3 -07.5465 26233.5
 02 06 2013  03 11  -21.0790 26006.1 -03445.2 -07.5465 26233.3
 02 06 2013  03 12  -21.0786 26005.2 -03444.8 -07.5459 26232.4
 02 06 2013  03 13  -21.0788 26002.5 -03443.7 -07.5441 26229.5
 02 06 2013  03 14  -21.0790 25999.1 -03442.0 -07.5414 26225.9
 02 06 2013  03 15  -21.0779 25995.9 -03440.4 -07.5389 26222.6
 02 06 2013  03 16  -21.0759 25993.6 -03439.2 -07.5371 26220.1
 02 06 2013  03 17  -21.0732 25992.4 -03438.8 -07.5365 26218.9
 02 06 2013  03 18  -21.0707 25992.3 -03439.0 -07.5370 26218.8
 02 06 2013  03 19  -21.0685 25992.9 -03439.9 -07.5386 26219.6
 02 06 2013  03 20  -21.0653 25994.0 -03440.7 -07.5402 26220.7
 02 06 2013  03 21  -21.0644 25994.8 -03441.7 -07.5420 26221.7
 02 06 2013  03 22  -21.0643 25995.8 -03442.6 -07.5438 26222.8
 02 06 2013  03 23  -21.0641 25996.3 -03443.2 -07.5450 26223.3
 02 06 2013  03 24  -21.0634 25996.5 -03443.5 -07.5456 26223.5
 02 06 2013  03 25  -21.0627 25996.4 -03443.7 -07.5459 26223.5
 02 06 2013  03 26  -21.0627 25996.6 -03443.9 -07.5464 26223.7
 02 06 2013  03 27  -21.0628 25997.0 -03444.3 -07.5470 26224.2
 02 06 2013  03 28  -21.0638 25997.4 -03444.7 -07.5478 26224.7
 02 06 2013  03 29  -21.0639 25997.3 -03444.8 -07.5480 26224.6
 02 06 2013  03 30  -21.0633 25997.1 -03444.6 -07.5477 26224.3
 02 06 2013  03 31  -21.0632 25996.8 -03444.5 -07.5475 26224.0
 02 06 2013  03 32  -21.0627 25996.6 -03444.4 -07.5474 26223.8
 02 06 2013  03 33  -21.0620 25996.1 -03444.2 -07.5472 26223.3
 02 06 2013  03 34  -21.0611 25995.4 -03443.9 -07.5467 26222.5
 02 06 2013  03 35  -21.0607 25994.9 -03443.7 -07.5464 26222.0
 02 06 2013  03 36  -21.0606 25995.2 -03444.0 -07.5469 26222.4
 02 06 2013  03 37  -21.0600 25994.9 -03444.1 -07.5472 26222.1
 02 06 2013  03 38  -21.0599 25994.6 -03444.0 -07.5471 26221.7
 02 06 2013  03 39  -21.0592 25995.5 -03444.5 -07.5479 26222.7
 02 06 2013  03 40  -21.0593 25997.2 -03445.5 -07.5496 26224.5
 02 06 2013  03 41  -21.0602 25998.7 -03446.5 -07.5514 26226.1
 02 06 2013  03 42  -21.0614 25999.4 -03447.0 -07.5522 26226.9
 02 06 2013  03 43  -21.0617 26000.5 -03447.5 -07.5530 26228.1
 02 06 2013  03 44  -21.0616 26001.7 -03448.0 -07.5536 26229.3
 02 06 2013  03 45  -21.0616 26002.2 -03448.1 -07.5538 26229.8
 02 06 2013  03 46  -21.0617 26003.5 -03448.6 -07.5545 26231.2
 02 06 2013  03 47  -21.0618 26004.5 -03449.0 -07.5551 26232.2
 02 06 2013  03 48  -21.0621 26005.2 -03449.2 -07.5554 26232.9
 02 06 2013  03 49  -21.0622 26005.6 -03449.3 -07.5554 26233.4
 02 06 2013  03 50  -21.0620 26005.9 -03449.2 -07.5552 26233.7
 02 06 2013  03 51  -21.0619 26005.5 -03448.9 -07.5546 26233.2
 02 06 2013  03 52  -21.0621 26005.2 -03448.6 -07.5539 26232.9
 02 06 2013  03 53  -21.0626 26005.5 -03448.6 -07.5539 26233.2
 02 06 2013  03 54  -21.0629 26005.9 -03448.7 -07.5541 26233.6
 02 06 2013  03 55  -21.0631 26006.5 -03448.9 -07.5542 26234.2
 02 06 2013  03 56  -21.0633 26007.4 -03449.3 -07.5548 26235.1
 02 06 2013  03 57  -21.0638 26007.7 -03449.3 -07.5548 26235.4
 02 06 2013  03 58  -21.0643 26007.8 -03449.2 -07.5546 26235.5
 02 06 2013  03 59  -21.0647 26008.0 -03449.2 -07.5545 26235.8
 02 06 2013  04 00  -21.0654 26008.3 -03449.2 -07.5545 26236.0
 02 06 2013  04 01  -21.0665 26008.9 -03449.4 -07.5547 26236.7
 02 06 2013  04 02  -21.0676 26009.5 -03449.6 -07.5550 26237.2
 02 06 2013  04 03  -21.0686 26010.3 -03449.9 -07.5553 26238.1
 02 06 2013  04 04  -21.0700 26011.0 -03450.1 -07.5556 26238.8
 02 06 2013  04 05  -21.0712 26011.5 -03450.2 -07.5556 26239.3
 02 06 2013  04 06  -21.0722 26011.9 -03450.1 -07.5554 26239.7
 02 06 2013  04 07  -21.0740 26012.0 -03450.0 -07.5551 26239.8
 02 06 2013  04 08  -21.0757 26012.2 -03449.9 -07.5548 26240.0
 02 06 2013  04 09  -21.0771 26012.3 -03449.7 -07.5544 26240.0
 02 06 2013  04 10  -21.0767 26013.1 -03449.7 -07.5541 26240.8
 02 06 2013  04 11  -21.0766 26013.5 -03449.7 -07.5540 26241.2
 02 06 2013  04 12  -21.0765 26014.0 -03449.7 -07.5539 26241.7
 02 06 2013  04 13  -21.0755 26014.0 -03449.5 -07.5534 26241.7
 02 06 2013  04 14  -21.0747 26013.9 -03449.2 -07.5528 26241.6
 02 06 2013  04 15  -21.0742 26013.5 -03448.8 -07.5521 26241.1
 02 06 2013  04 16  -21.0738 26013.3 -03448.6 -07.5517 26240.9
 02 06 2013  04 17  -21.0735 26013.2 -03448.5 -07.5514 26240.8
 02 06 2013  04 18  -21.0732 26013.4 -03448.5 -07.5514 26240.9
 02 06 2013  04 19  -21.0732 26013.5 -03448.5 -07.5514 26241.1
 02 06 2013  04 20  -21.0730 26014.0 -03448.7 -07.5516 26241.6
 02 06 2013  04 21  -21.0727 26014.5 -03448.8 -07.5519 26242.1
 02 06 2013  04 22  -21.0723 26014.6 -03448.8 -07.5518 26242.2
 02 06 2013  04 23  -21.0724 26014.6 -03448.8 -07.5517 26242.2
 02 06 2013  04 24  -21.0724 26014.4 -03448.6 -07.5513 26242.0
 02 06 2013  04 25  -21.0723 26014.3 -03448.4 -07.5511 26241.9
 02 06 2013  04 26  -21.0721 26014.2 -03448.3 -07.5509 26241.7
 02 06 2013  04 27  -21.0722 26013.8 -03448.1 -07.5504 26241.3
 02 06 2013  04 28  -21.0718 26013.8 -03448.0 -07.5502 26241.3
 02 06 2013  04 29  -21.0710 26014.3 -03448.1 -07.5504 26241.8
 02 06 2013  04 30  -21.0710 26014.3 -03448.2 -07.5505 26241.8
 02 06 2013  04 31  -21.0714 26013.9 -03448.0 -07.5502 26241.4
 02 06 2013  04 32  -21.0709 26013.3 -03447.6 -07.5495 26240.8
 02 06 2013  04 33  -21.0696 26013.3 -03447.4 -07.5492 26240.8
 02 06 2013  04 34  -21.0678 26013.8 -03447.6 -07.5493 26241.2
 02 06 2013  04 35  -21.0659 26014.2 -03447.8 -07.5496 26241.7
 02 06 2013  04 36  -21.0647 26014.1 -03447.7 -07.5496 26241.5
 02 06 2013  04 37  -21.0642 26014.0 -03447.7 -07.5495 26241.5
 02 06 2013  04 38  -21.0634 26014.4 -03448.0 -07.5500 26241.9
 02 06 2013  04 39  -21.0622 26014.6 -03448.0 -07.5501 26242.1
 02 06 2013  04 40  -21.0614 26014.1 -03447.8 -07.5498 26241.6
 02 06 2013  04 41  -21.0603 26013.3 -03447.5 -07.5492 26240.7
 02 06 2013  04 42  -21.0594 26012.7 -03447.1 -07.5487 26240.1
 02 06 2013  04 43  -21.0589 26012.4 -03447.0 -07.5486 26239.8
 02 06 2013  04 44  -21.0586 26011.9 -03447.0 -07.5486 26239.3
 02 06 2013  04 45  -21.0580 26011.6 -03446.9 -07.5485 26239.0
 02 06 2013  04 46  -21.0578 26011.2 -03446.8 -07.5484 26238.5
 02 06 2013  04 47  -21.0577 26010.7 -03446.7 -07.5482 26238.1
 02 06 2013  04 48  -21.0579 26010.2 -03446.5 -07.5480 26237.5
 02 06 2013  04 49  -21.0583 26009.9 -03446.5 -07.5481 26237.3
 02 06 2013  04 50  -21.0584 26009.5 -03446.4 -07.5480 26236.8
 02 06 2013  04 51  -21.0579 26009.2 -03446.3 -07.5478 26236.5
 02 06 2013  04 52  -21.0576 26009.0 -03446.3 -07.5478 26236.3
 02 06 2013  04 53  -21.0576 26008.8 -03446.3 -07.5480 26236.2
 02 06 2013  04 54  -21.0574 26008.9 -03446.4 -07.5483 26236.3
 02 06 2013  04 55  -21.0567 26009.2 -03446.6 -07.5485 26236.5
 02 06 2013  04 56  -21.0561 26009.7 -03446.9 -07.5491 26237.1
 02 06 2013  04 57  -21.0559 26010.0 -03447.3 -07.5497 26237.5
 02 06 2013  04 58  -21.0563 26009.9 -03447.3 -07.5499 26237.3
 02 06 2013  04 59  -21.0564 26009.8 -03447.3 -07.5498 26237.2
 02 06 2013  05 00  -21.0576 26009.1 -03447.0 -07.5494 26236.5
 02 06 2013  05 01  -21.0585 26009.1 -03447.0 -07.5494 26236.5
 02 06 2013  05 02  -21.0588 26009.2 -03447.1 -07.5495 26236.7
 02 06 2013  05 03  -21.0585 26009.5 -03447.2 -07.5496 26236.9
 02 06 2013  05 04  -21.0583 26009.7 -03447.2 -07.5497 26237.2
 02 06 2013  05 05  -21.0587 26009.6 -03447.2 -07.5498 26237.0
 02 06 2013  05 06  -21.0594 26009.3 -03447.1 -07.5496 26236.7
 02 06 2013  05 07  -21.0601 26008.7 -03446.8 -07.5491 26236.1
 02 06 2013  05 08  -21.0602 26008.4 -03446.6 -07.5488 26235.8
 02 06 2013  05 09  -21.0605 26008.4 -03446.6 -07.5488 26235.7
 02 06 2013  05 10  -21.0610 26008.0 -03446.4 -07.5485 26235.3
 02 06 2013  05 11  -21.0616 26007.8 -03446.4 -07.5484 26235.1
 02 06 2013  05 12  -21.0622 26008.0 -03446.5 -07.5487 26235.4
 02 06 2013  05 13  -21.0630 26007.9 -03446.5 -07.5487 26235.3
 02 06 2013  05 14  -21.0639 26007.3 -03446.3 -07.5483 26234.6
 02 06 2013  05 15  -21.0642 26006.6 -03445.9 -07.5477 26233.9
 02 06 2013  05 16  -21.0636 26006.4 -03445.7 -07.5473 26233.6
 02 06 2013  05 17  -21.0627 26006.1 -03445.5 -07.5471 26233.4
 02 06 2013  05 18  -21.0619 26006.0 -03445.5 -07.5471 26233.3
 02 06 2013  05 19  -21.0615 26005.8 -03445.5 -07.5471 26233.1
 02 06 2013  05 20  -21.0616 26005.0 -03445.3 -07.5468 26232.3
 02 06 2013  05 21  -21.0614 26004.5 -03445.0 -07.5465 26231.7
 02 06 2013  05 22  -21.0611 26004.9 -03445.3 -07.5469 26232.1
 02 06 2013  05 23  -21.0610 26005.8 -03445.9 -07.5480 26233.1
 02 06 2013  05 24  -21.0611 26005.8 -03446.2 -07.5486 26233.2
 02 06 2013  05 25  -21.0617 26005.1 -03445.9 -07.5482 26232.5
 02 06 2013  05 26  -21.0619 26005.6 -03446.1 -07.5486 26233.0
 02 06 2013  05 27  -21.0626 26005.8 -03446.4 -07.5490 26233.2
 02 06 2013  05 28  -21.0632 26005.9 -03446.5 -07.5492 26233.3
 02 06 2013  05 29  -21.0636 26005.8 -03446.4 -07.5492 26233.2
 02 06 2013  05 30  -21.0637 26005.7 -03446.4 -07.5490 26233.1
 02 06 2013  05 31  -21.0636 26005.7 -03446.3 -07.5489 26233.0
 02 06 2013  05 32  -21.0634 26005.6 -03446.3 -07.5489 26233.0
 02 06 2013  05 33  -21.0632 26005.4 -03446.2 -07.5488 26232.8
 02 06 2013  05 34  -21.0629 26005.0 -03446.0 -07.5485 26232.3
 02 06 2013  05 35  -21.0621 26004.7 -03445.9 -07.5482 26232.0
 02 06 2013  05 36  -21.0611 26005.1 -03446.1 -07.5486 26232.5
 02 06 2013  05 37  -21.0606 26005.7 -03446.5 -07.5493 26233.1
 02 06 2013  05 38  -21.0611 26005.8 -03446.7 -07.5497 26233.2
 02 06 2013  05 39  -21.0621 26005.7 -03446.7 -07.5498 26233.1
 02 06 2013  05 40  -21.0629 26005.5 -03446.7 -07.5499 26232.9
 02 06 2013  05 41  -21.0633 26005.6 -03446.7 -07.5499 26233.0
 02 06 2013  05 42  -21.0636 26005.9 -03446.9 -07.5502 26233.3
 02 06 2013  05 43  -21.0640 26006.3 -03447.1 -07.5505 26233.7
 02 06 2013  05 44  -21.0644 26006.6 -03447.3 -07.5508 26234.1
 02 06 2013  05 45  -21.0651 26006.9 -03447.4 -07.5510 26234.4
 02 06 2013  05 46  -21.0659 26007.1 -03447.6 -07.5513 26234.6
 02 06 2013  05 47  -21.0669 26007.0 -03447.5 -07.5511 26234.5
 02 06 2013  05 48  -21.0675 26007.2 -03447.5 -07.5510 26234.7
 02 06 2013  05 49  -21.0684 26007.3 -03447.5 -07.5510 26234.8
 02 06 2013  05 50  -21.0695 26007.3 -03447.4 -07.5508 26234.7
 02 06 2013  05 51  -21.0701 26007.1 -03447.2 -07.5505 26234.6
 02 06 2013  05 52  -21.0703 26006.8 -03447.0 -07.5500 26234.3
 02 06 2013  05 53  -21.0703 26006.6 -03446.7 -07.5496 26234.0
 02 06 2013  05 54  -21.0699 26006.5 -03446.6 -07.5493 26233.9
 02 06 2013  05 55  -21.0691 26006.3 -03446.5 -07.5491 26233.7
 02 06 2013  05 56  -21.0682 26006.2 -03446.3 -07.5488 26233.6
 02 06 2013  05 57  -21.0671 26006.0 -03446.2 -07.5486 26233.3
 02 06 2013  05 58  -21.0660 26005.7 -03446.1 -07.5483 26233.0
 02 06 2013  05 59  -21.0646 26005.4 -03445.9 -07.5481 26232.7
 02 06 2013  06 00  -21.0631 26005.2 -03445.8 -07.5480 26232.5
 02 06 2013  06 01  -21.0615 26004.9 -03445.8 -07.5480 26232.2
 02 06 2013  06 02  -21.0602 26004.5 -03445.6 -07.5478 26231.8
 02 06 2013  06 03  -21.0589 26004.1 -03445.5 -07.5477 26231.4
 02 06 2013  06 04  -21.0581 26003.7 -03445.5 -07.5476 26231.0
 02 06 2013  06 05  -21.0570 26004.0 -03445.7 -07.5480 26231.2
 02 06 2013  06 06  -21.0558 26003.9 -03445.8 -07.5483 26231.2
 02 06 2013  06 07  -21.0542 26003.8 -03445.8 -07.5484 26231.1
 02 06 2013  06 08  -21.0527 26003.8 -03445.9 -07.5486 26231.1
 02 06 2013  06 09  -21.0519 26003.7 -03446.0 -07.5488 26231.0
 02 06 2013  06 10  -21.0517 26003.5 -03446.1 -07.5491 26230.8
 02 06 2013  06 11  -21.0517 26003.2 -03446.1 -07.5493 26230.5
 02 06 2013  06 12  -21.0518 26003.2 -03446.3 -07.5495 26230.6
 02 06 2013  06 13  -21.0511 26003.4 -03446.4 -07.5499 26230.8
 02 06 2013  06 14  -21.0498 26003.5 -03446.5 -07.5500 26230.9
 02 06 2013  06 15  -21.0488 26003.3 -03446.6 -07.5502 26230.8
 02 06 2013  06 16  -21.0482 26002.9 -03446.5 -07.5501 26230.3
 02 06 2013  06 17  -21.0481 26002.5 -03446.4 -07.5500 26229.9
 02 06 2013  06 18  -21.0481 26002.3 -03446.4 -07.5500 26229.7
 02 06 2013  06 19  -21.0479 26002.1 -03446.4 -07.5501 26229.5
 02 06 2013  06 20  -21.0477 26001.9 -03446.4 -07.5501 26229.3
 02 06 2013  06 21  -21.0479 26001.4 -03446.3 -07.5500 26228.8
 02 06 2013  06 22  -21.0481 26001.1 -03446.2 -07.5499 26228.5
 02 06 2013  06 23  -21.0487 26000.8 -03446.1 -07.5499 26228.2
 02 06 2013  06 24  -21.0493 26000.5 -03446.1 -07.5499 26227.9
 02 06 2013  06 25  -21.0497 26000.3 -03446.0 -07.5499 26227.7
 02 06 2013  06 26  -21.0499 26000.2 -03446.0 -07.5498 26227.6
 02 06 2013  06 27  -21.0500 26000.1 -03446.0 -07.5499 26227.4
 02 06 2013  06 28  -21.0500 26000.0 -03446.0 -07.5499 26227.4
 02 06 2013  06 29  -21.0498 26000.0 -03446.0 -07.5500 26227.3
 02 06 2013  06 30  -21.0495 25999.9 -03446.0 -07.5500 26227.3
 02 06 2013  06 31  -21.0490 25999.8 -03446.1 -07.5501 26227.2
 02 06 2013  06 32  -21.0487 25999.7 -03446.1 -07.5501 26227.1
 02 06 2013  06 33  -21.0483 25999.7 -03446.1 -07.5502 26227.0
 02 06 2013  06 34  -21.0481 25999.7 -03446.2 -07.5503 26227.1
 02 06 2013  06 35  -21.0478 26000.1 -03446.4 -07.5508 26227.5
 02 06 2013  06 36  -21.0477 26000.3 -03446.6 -07.5512 26227.8
 02 06 2013  06 37  -21.0478 26000.5 -03446.8 -07.5515 26228.0
 02 06 2013  06 38  -21.0483 26000.4 -03446.9 -07.5517 26227.9
 02 06 2013  06 39  -21.0487 26000.3 -03446.9 -07.5517 26227.8
 02 06 2013  06 40  -21.0493 26000.1 -03446.8 -07.5516 26227.5
 02 06 2013  06 41  -21.0500 25999.7 -03446.6 -07.5513 26227.2
 02 06 2013  06 42  -21.0505 25999.6 -03446.6 -07.5513 26227.1
 02 06 2013  06 43  -21.0506 25999.5 -03446.5 -07.5511 26226.9
 02 06 2013  06 44  -21.0509 25999.5 -03446.5 -07.5511 26226.9
 02 06 2013  06 45  -21.0518 25999.1 -03446.4 -07.5510 26226.6
 02 06 2013  06 46  -21.0527 25999.2 -03446.4 -07.5511 26226.7
 02 06 2013  06 47  -21.0530 25999.2 -03446.5 -07.5511 26226.7
 02 06 2013  06 48  -21.0528 25999.3 -03446.5 -07.5511 26226.8
 02 06 2013  06 49  -21.0531 25999.5 -03446.6 -07.5513 26227.0
 02 06 2013  06 50  -21.0542 25999.9 -03446.9 -07.5518 26227.4
 02 06 2013  06 51  -21.0552 26000.0 -03447.0 -07.5520 26227.5
 02 06 2013  06 52  -21.0561 26000.2 -03447.0 -07.5521 26227.7
 02 06 2013  06 53  -21.0566 26000.7 -03447.2 -07.5522 26228.2
 02 06 2013  06 54  -21.0571 26000.7 -03447.2 -07.5522 26228.2
 02 06 2013  06 55  -21.0571 26001.0 -03447.2 -07.5522 26228.5
 02 06 2013  06 56  -21.0570 26000.7 -03447.0 -07.5518 26228.2
 02 06 2013  06 57  -21.0570 26000.4 -03446.7 -07.5513 26227.8
 02 06 2013  06 58  -21.0562 26000.4 -03446.6 -07.5510 26227.8
 02 06 2013  06 59  -21.0554 26000.4 -03446.6 -07.5510 26227.8
 02 06 2013  07 00  -21.0549 26000.3 -03446.5 -07.5509 26227.8
 02 06 2013  07 01  -21.0547 25999.8 -03446.3 -07.5506 26227.3
 02 06 2013  07 02  -21.0541 26000.0 -03446.3 -07.5505 26227.4
 02 06 2013  07 03  -21.0543 26000.2 -03446.5 -07.5509 26227.7
 02 06 2013  07 04  -21.0557 26000.1 -03446.5 -07.5510 26227.5
 02 06 2013  07 05  -21.0563 26000.1 -03446.6 -07.5511 26227.5
 02 06 2013  07 06  -21.0571 25999.6 -03446.3 -07.5507 26227.1
 02 06 2013  07 07  -21.0574 25999.7 -03446.3 -07.5506 26227.1
 02 06 2013  07 08  -21.0573 26000.2 -03446.5 -07.5508 26227.6
 02 06 2013  07 09  -21.0574 26000.7 -03446.7 -07.5512 26228.1
 02 06 2013  07 10  -21.0570 26001.0 -03446.9 -07.5514 26228.5
 02 06 2013  07 11  -21.0566 26001.1 -03446.8 -07.5514 26228.6
 02 06 2013  07 12  -21.0561 26002.3 -03447.3 -07.5520 26229.9
 02 06 2013  07 13  -21.0557 26004.0 -03448.2 -07.5534 26231.6
 02 06 2013  07 14  -21.0556 26005.1 -03448.8 -07.5544 26232.8
 02 06 2013  07 15  -21.0559 26005.6 -03448.9 -07.5546 26233.3
 02 06 2013  07 16  -21.0570 26005.2 -03448.7 -07.5542 26232.9
 02 06 2013  07 17  -21.0580 26004.7 -03448.3 -07.5536 26232.3
 02 06 2013  07 18  -21.0586 26004.3 -03448.0 -07.5529 26231.9
 02 06 2013  07 19  -21.0588 26004.2 -03447.8 -07.5525 26231.8
 02 06 2013  07 20  -21.0590 26004.5 -03447.8 -07.5525 26232.1
 02 06 2013  07 21  -21.0592 26005.1 -03448.0 -07.5527 26232.7
 02 06 2013  07 22  -21.0589 26005.6 -03448.2 -07.5530 26233.2
 02 06 2013  07 23  -21.0581 26005.7 -03448.1 -07.5528 26233.3
 02 06 2013  07 24  -21.0573 26005.2 -03447.8 -07.5522 26232.8
 02 06 2013  07 25  -21.0567 26005.1 -03447.5 -07.5517 26232.6
 02 06 2013  07 26  -21.0562 26005.0 -03447.5 -07.5517 26232.5
 02 06 2013  07 27  -21.0558 26005.0 -03447.4 -07.5515 26232.5
 02 06 2013  07 28  -21.0554 26004.9 -03447.4 -07.5516 26232.5
 02 06 2013  07 29  -21.0558 26004.8 -03447.4 -07.5516 26232.3
 02 06 2013  07 30  -21.0557 26004.6 -03447.3 -07.5514 26232.1
 02 06 2013  07 31  -21.0557 26004.5 -03447.3 -07.5513 26232.0
 02 06 2013  07 32  -21.0560 26004.3 -03447.2 -07.5513 26231.8
 02 06 2013  07 33  -21.0557 26004.6 -03447.3 -07.5513 26232.1
 02 06 2013  07 34  -21.0554 26005.1 -03447.5 -07.5516 26232.6
 02 06 2013  07 35  -21.0549 26005.7 -03447.8 -07.5521 26233.2
 02 06 2013  07 36  -21.0548 26005.8 -03447.9 -07.5523 26233.4
 02 06 2013  07 37  -21.0553 26005.5 -03447.7 -07.5521 26233.0
 02 06 2013  07 38  -21.0554 26005.4 -03447.6 -07.5518 26232.9
 02 06 2013  07 39  -21.0546 26005.4 -03447.5 -07.5517 26232.9
 02 06 2013  07 40  -21.0535 26005.1 -03447.3 -07.5513 26232.7
 02 06 2013  07 41  -21.0527 26005.0 -03447.2 -07.5511 26232.5
 02 06 2013  07 42  -21.0524 26004.9 -03447.2 -07.5511 26232.4
 02 06 2013  07 43  -21.0524 26005.4 -03447.5 -07.5515 26232.9
 02 06 2013  07 44  -21.0521 26005.6 -03447.7 -07.5519 26233.2
 02 06 2013  07 45  -21.0516 26005.9 -03447.8 -07.5521 26233.4
 02 06 2013  07 46  -21.0511 26005.8 -03447.8 -07.5520 26233.3
 02 06 2013  07 47  -21.0504 26005.5 -03447.6 -07.5519 26233.0
 02 06 2013  07 48  -21.0494 26004.8 -03447.2 -07.5512 26232.3
 02 06 2013  07 49  -21.0488 26004.6 -03447.1 -07.5510 26232.1
 02 06 2013  07 50  -21.0483 26004.4 -03447.1 -07.5510 26231.9
 02 06 2013  07 51  -21.0472 26004.7 -03447.2 -07.5511 26232.1
 02 06 2013  07 52  -21.0462 26004.7 -03447.3 -07.5513 26232.2
 02 06 2013  07 53  -21.0458 26004.9 -03447.5 -07.5517 26232.4
 02 06 2013  07 54  -21.0452 26005.1 -03447.7 -07.5520 26232.7
 02 06 2013  07 55  -21.0450 26005.3 -03447.9 -07.5524 26232.9
 02 06 2013  07 56  -21.0454 26005.6 -03448.1 -07.5528 26233.2
 02 06 2013  07 57  -21.0460 26005.9 -03448.3 -07.5532 26233.5
 02 06 2013  07 58  -21.0457 26006.0 -03448.4 -07.5532 26233.6
 02 06 2013  07 59  -21.0454 26006.6 -03448.6 -07.5536 26234.2
 02 06 2013  08 00  -21.0453 26006.8 -03448.7 -07.5538 26234.5
 02 06 2013  08 01  -21.0448 26006.3 -03448.4 -07.5533 26233.9
 02 06 2013  08 02  -21.0442 26006.1 -03448.3 -07.5531 26233.7
 02 06 2013  08 03  -21.0434 26005.7 -03448.0 -07.5526 26233.3
 02 06 2013  08 04  -21.0426 26005.7 -03448.0 -07.5525 26233.3
 02 06 2013  08 05  -21.0425 26005.8 -03448.1 -07.5527 26233.4
 02 06 2013  08 06  -21.0443 26006.1 -03448.4 -07.5533 26233.7
 02 06 2013  08 07  -21.0464 26006.5 -03448.7 -07.5540 26234.1
 02 06 2013  08 08  -21.0472 26006.7 -03448.9 -07.5543 26234.4
 02 06 2013  08 09  -21.0463 26006.5 -03448.6 -07.5537 26234.2
 02 06 2013  08 10  -21.0457 26006.4 -03448.5 -07.5534 26234.1
 02 06 2013  08 11  -21.0455 26006.0 -03448.3 -07.5531 26233.6
 02 06 2013  08 12  -21.0455 26006.1 -03448.2 -07.5529 26233.7
 02 06 2013  08 13  -21.0458 26007.0 -03448.6 -07.5536 26234.6
 02 06 2013  08 14  -21.0460 26007.6 -03449.0 -07.5542 26235.3
 02 06 2013  08 15  -21.0457 26007.7 -03449.0 -07.5542 26235.4
 02 06 2013  08 16  -21.0450 26007.1 -03448.6 -07.5535 26234.7
 02 06 2013  08 17  -21.0443 26006.9 -03448.4 -07.5530 26234.6
 02 06 2013  08 18  -21.0438 26006.6 -03448.1 -07.5526 26234.2
 02 06 2013  08 19  -21.0439 26005.8 -03447.7 -07.5520 26233.3
 02 06 2013  08 20  -21.0444 26005.9 -03447.8 -07.5520 26233.4
 02 06 2013  08 21  -21.0443 26005.2 -03447.5 -07.5516 26232.8
 02 06 2013  08 22  -21.0444 26006.0 -03447.8 -07.5520 26233.5
 02 06 2013  08 23  -21.0441 26005.6 -03447.6 -07.5518 26233.1
 02 06 2013  08 24  -21.0437 26006.1 -03447.8 -07.5520 26233.6
 02 06 2013  08 25  -21.0434 26006.4 -03448.0 -07.5524 26234.0
 02 06 2013  08 26  -21.0431 26006.8 -03448.2 -07.5526 26234.4
 02 06 2013  08 27  -21.0426 26007.5 -03448.5 -07.5531 26235.1
 02 06 2013  08 28  -21.0409 26008.0 -03448.6 -07.5532 26235.6
 02 06 2013  08 29  -21.0391 26007.5 -03448.3 -07.5528 26235.1
 02 06 2013  08 30  -21.0381 26006.9 -03448.0 -07.5523 26234.5
 02 06 2013  08 31  -21.0378 26006.7 -03448.0 -07.5524 26234.2
 02 06 2013  08 32  -21.0371 26006.3 -03447.9 -07.5522 26233.9
 02 06 2013  08 33  -21.0366 26006.0 -03447.9 -07.5522 26233.6
 02 06 2013  08 34  -21.0366 26006.0 -03448.0 -07.5524 26233.6
 02 06 2013  08 35  -21.0364 26006.2 -03448.1 -07.5527 26233.8
 02 06 2013  08 36  -21.0358 26006.3 -03448.2 -07.5528 26233.9
 02 06 2013  08 37  -21.0355 26006.4 -03448.3 -07.5529 26234.0
 02 06 2013  08 38  -21.0353 26006.3 -03448.2 -07.5528 26233.9
 02 06 2013  08 39  -21.0348 26006.2 -03448.1 -07.5527 26233.8
 02 06 2013  08 40  -21.0345 26006.0 -03448.1 -07.5527 26233.6
 02 06 2013  08 41  -21.0342 26005.9 -03448.1 -07.5528 26233.4
 02 06 2013  08 42  -21.0337 26006.2 -03448.3 -07.5531 26233.8
 02 06 2013  08 43  -21.0332 26006.0 -03448.3 -07.5532 26233.6
 02 06 2013  08 44  -21.0321 26005.8 -03448.3 -07.5532 26233.4
 02 06 2013  08 45  -21.0312 26005.7 -03448.3 -07.5533 26233.3
 02 06 2013  08 46  -21.0317 26005.9 -03448.5 -07.5536 26233.5
 02 06 2013  08 47  -21.0312 26005.8 -03448.6 -07.5538 26233.4
 02 06 2013  08 48  -21.0303 26005.7 -03448.5 -07.5537 26233.4
 02 06 2013  08 49  -21.0301 26005.9 -03448.7 -07.5539 26233.6
 02 06 2013  08 50  -21.0302 26006.2 -03448.9 -07.5543 26233.9
 02 06 2013  08 51  -21.0298 26006.3 -03449.0 -07.5545 26234.0
 02 06 2013  08 52  -21.0297 26006.4 -03449.1 -07.5547 26234.2
 02 06 2013  08 53  -21.0297 26006.6 -03449.2 -07.5548 26234.3
 02 06 2013  08 54  -21.0290 26006.8 -03449.2 -07.5548 26234.5
 02 06 2013  08 55  -21.0286 26006.8 -03449.1 -07.5547 26234.5
 02 06 2013  08 56  -21.0282 26006.4 -03449.0 -07.5545 26234.1
 02 06 2013  08 57  -21.0272 26006.1 -03448.8 -07.5542 26233.7
 02 06 2013  08 58  -21.0267 26005.2 -03448.6 -07.5540 26232.9
 02 06 2013  08 59  -21.0251 26004.7 -03448.4 -07.5537 26232.3
 02 06 2013  09 00  -21.0247 26004.1 -03448.3 -07.5537 26231.7
 02 06 2013  09 01  -21.0242 26003.7 -03448.4 -07.5540 26231.4
 02 06 2013  09 02  -21.0240 26003.8 -03448.7 -07.5545 26231.5
 02 06 2013  09 03  -21.0237 26003.7 -03448.8 -07.5550 26231.4
 02 06 2013  09 04  -21.0241 26003.9 -03449.1 -07.5555 26231.7
 02 06 2013  09 05  -21.0237 26003.4 -03449.0 -07.5554 26231.2
 02 06 2013  09 06  -21.0218 26003.0 -03448.7 -07.5548 26230.7
 02 06 2013  09 07  -21.0208 26002.1 -03448.3 -07.5542 26229.8
 02 06 2013  09 08  -21.0204 26001.9 -03448.3 -07.5544 26229.6
 02 06 2013  09 09  -21.0193 26002.4 -03448.6 -07.5548 26230.1
 02 06 2013  09 10  -21.0190 26002.4 -03448.7 -07.5549 26230.1
 02 06 2013  09 11  -21.0179 26002.1 -03448.6 -07.5549 26229.8
 02 06 2013  09 12  -21.0161 26001.8 -03448.5 -07.5548 26229.5
 02 06 2013  09 13  -21.0156 26002.1 -03448.8 -07.5554 26229.8
 02 06 2013  09 14  -21.0114 26001.7 -03448.7 -07.5553 26229.4
 02 06 2013  09 15  -21.0097 26002.1 -03448.8 -07.5553 26229.8
 02 06 2013  09 16  -21.0099 26001.5 -03448.8 -07.5555 26229.2
 02 06 2013  09 17  -21.0093 26000.9 -03448.7 -07.5554 26228.6
 02 06 2013  09 18  -21.0087 26001.4 -03449.1 -07.5562 26229.2
 02 06 2013  09 19  -21.0073 26001.2 -03449.3 -07.5567 26229.0
 02 06 2013  09 20  -21.0054 26001.0 -03449.2 -07.5565 26228.8
 02 06 2013  09 21  -21.0048 26001.9 -03449.6 -07.5570 26229.7
 02 06 2013  09 22  -21.0068 26001.6 -03449.7 -07.5574 26229.5
 02 06 2013  09 23  -21.0059 26001.1 -03449.7 -07.5576 26229.0
 02 06 2013  09 24  -21.0030 26001.3 -03449.8 -07.5577 26229.1
 02 06 2013  09 25  -20.9994 26001.7 -03449.8 -07.5576 26229.6
 02 06 2013  09 26  -20.9976 26002.3 -03450.1 -07.5582 26230.2
 02 06 2013  09 27  -20.9957 26002.6 -03450.5 -07.5588 26230.5
 02 06 2013  09 28  -20.9924 26002.5 -03450.5 -07.5589 26230.4
 02 06 2013  09 29  -20.9896 26002.8 -03450.7 -07.5591 26230.8
 02 06 2013  09 30  -20.9883 26002.5 -03450.6 -07.5591 26230.5
 02 06 2013  09 31  -20.9891 26002.3 -03450.8 -07.5597 26230.3
 02 06 2013  09 32  -20.9884 26002.0 -03451.0 -07.5601 26230.0
 02 06 2013  09 33  -20.9872 26001.9 -03451.2 -07.5605 26230.0
 02 06 2013  09 34  -20.9872 26001.4 -03451.2 -07.5607 26229.4
 02 06 2013  09 35  -20.9885 26001.0 -03451.4 -07.5614 26229.1
 02 06 2013  09 36  -20.9883 26000.9 -03451.7 -07.5620 26229.0
 02 06 2013  09 37  -20.9879 26001.2 -03452.1 -07.5627 26229.3
 02 06 2013  09 38  -20.9880 26001.4 -03452.4 -07.5633 26229.6
 02 06 2013  09 39  -20.9871 26001.6 -03452.7 -07.5639 26229.8
 02 06 2013  09 40  -20.9869 26002.1 -03453.1 -07.5647 26230.4
 02 06 2013  09 41  -20.9865 26002.9 -03453.7 -07.5656 26231.3
 02 06 2013  09 42  -20.9864 26003.1 -03453.8 -07.5659 26231.4
 02 06 2013  09 43  -20.9868 26003.6 -03454.2 -07.5665 26232.1
 02 06 2013  09 44  -20.9866 26003.5 -03454.2 -07.5667 26231.9
 02 06 2013  09 45  -20.9868 26003.2 -03454.3 -07.5669 26231.6
 02 06 2013  09 46  -20.9856 26003.4 -03454.5 -07.5673 26231.8
 02 06 2013  09 47  -20.9847 26003.3 -03454.6 -07.5675 26231.8
 02 06 2013  09 48  -20.9844 26003.2 -03454.7 -07.5678 26231.7
 02 06 2013  09 49  -20.9835 26003.9 -03455.1 -07.5685 26232.4
 02 06 2013  09 50  -20.9835 26004.4 -03455.6 -07.5693 26233.0
 02 06 2013  09 51  -20.9833 26004.5 -03455.7 -07.5696 26233.1
 02 06 2013  09 52  -20.9826 26004.2 -03455.8 -07.5698 26232.8
 02 06 2013  09 53  -20.9821 26004.3 -03455.9 -07.5701 26232.9
 02 06 2013  09 54  -20.9811 26004.2 -03456.0 -07.5704 26232.9
 02 06 2013  09 55  -20.9817 26004.4 -03456.3 -07.5709 26233.0
 02 06 2013  09 56  -20.9836 26004.3 -03456.6 -07.5716 26233.1
 02 06 2013  09 57  -20.9828 26004.1 -03456.8 -07.5720 26232.9
 02 06 2013  09 58  -20.9827 26003.5 -03456.7 -07.5721 26232.2
 02 06 2013  09 59  -20.9827 26002.8 -03456.7 -07.5723 26231.6
 02 06 2013  10 00  -20.9822 26002.6 -03456.8 -07.5725 26231.4
 02 06 2013  10 01  -20.9817 26002.9 -03457.1 -07.5731 26231.7
 02 06 2013  10 02  -20.9812 26003.5 -03457.4 -07.5735 26232.3
 02 06 2013  10 03  -20.9830 26003.8 -03457.6 -07.5739 26232.7
 02 06 2013  10 04  -20.9826 26004.7 -03458.1 -07.5746 26233.6
 02 06 2013  10 05  -20.9826 26004.9 -03458.1 -07.5746 26233.8
 02 06 2013  10 06  -20.9836 26005.7 -03458.4 -07.5751 26234.6
 02 06 2013  10 07  -20.9836 26006.0 -03458.6 -07.5754 26235.0
 02 06 2013  10 08  -20.9831 26006.0 -03458.5 -07.5751 26234.9
 02 06 2013  10 09  -20.9830 26006.2 -03458.6 -07.5753 26235.2
 02 06 2013  10 10  -20.9833 26006.3 -03458.7 -07.5755 26235.3
 02 06 2013  10 11  -20.9825 26006.4 -03458.7 -07.5754 26235.4
 02 06 2013  10 12  -20.9812 26007.0 -03458.8 -07.5756 26236.0
 02 06 2013  10 13  -20.9805 26007.1 -03458.9 -07.5757 26236.1
 02 06 2013  10 14  -20.9800 26007.3 -03459.0 -07.5759 26236.3
 02 06 2013  10 15  -20.9807 26007.1 -03459.1 -07.5761 26236.2
 02 06 2013  10 16  -20.9816 26006.8 -03459.1 -07.5763 26235.8
 02 06 2013  10 17  -20.9824 26006.5 -03459.2 -07.5765 26235.5
 02 06 2013  10 18  -20.9824 26005.8 -03459.1 -07.5765 26234.9
 02 06 2013  10 19  -20.9831 26005.3 -03459.1 -07.5766 26234.4
 02 06 2013  10 20  -20.9833 26005.3 -03459.3 -07.5771 26234.4
 02 06 2013  10 21  -20.9822 26005.3 -03459.4 -07.5775 26234.4
 02 06 2013  10 22  -20.9808 26005.6 -03459.6 -07.5778 26234.7
 02 06 2013  10 23  -20.9807 26005.9 -03459.9 -07.5783 26235.0
 02 06 2013  10 24  -20.9808 26006.0 -03460.1 -07.5787 26235.2
 02 06 2013  10 25  -20.9807 26005.7 -03460.2 -07.5789 26234.9
 02 06 2013  10 26  -20.9801 26005.7 -03460.2 -07.5790 26234.8
 02 06 2013  10 27  -20.9799 26005.8 -03460.4 -07.5795 26235.1
 02 06 2013  10 28  -20.9806 26005.8 -03460.7 -07.5800 26235.0
 02 06 2013  10 29  -20.9806 26005.6 -03460.9 -07.5805 26234.8
 02 06 2013  10 30  -20.9805 26005.1 -03460.9 -07.5807 26234.4
 02 06 2013  10 31  -20.9803 26005.3 -03461.2 -07.5812 26234.6
 02 06 2013  10 32  -20.9798 26005.7 -03461.5 -07.5818 26235.1
 02 06 2013  10 33  -20.9800 26005.5 -03461.5 -07.5819 26234.9
 02 06 2013  10 34  -20.9804 26005.0 -03461.5 -07.5821 26234.4
 02 06 2013  10 35  -20.9807 26004.7 -03461.6 -07.5823 26234.1
 02 06 2013  10 36  -20.9811 26004.7 -03461.8 -07.5828 26234.1
 02 06 2013  10 37  -20.9813 26004.7 -03462.1 -07.5833 26234.2
 02 06 2013  10 38  -20.9809 26004.9 -03462.2 -07.5836 26234.4
 02 06 2013  10 39  -20.9803 26004.6 -03462.3 -07.5838 26234.1
 02 06 2013  10 40  -20.9794 26004.8 -03462.4 -07.5839 26234.2
 02 06 2013  10 41  -20.9798 26004.7 -03462.4 -07.5839 26234.1
 02 06 2013  10 42  -20.9798 26004.8 -03462.5 -07.5843 26234.3
 02 06 2013  10 43  -20.9787 26005.5 -03462.7 -07.5844 26235.0
 02 06 2013  10 44  -20.9780 26006.4 -03463.0 -07.5849 26236.0
 02 06 2013  10 45  -20.9787 26007.0 -03463.1 -07.5849 26236.6
 02 06 2013  10 46  -20.9787 26007.1 -03463.0 -07.5847 26236.6
 02 06 2013  10 47  -20.9782 26006.5 -03462.8 -07.5843 26236.0
 02 06 2013  10 48  -20.9776 26006.2 -03462.7 -07.5842 26235.7
 02 06 2013  10 49  -20.9775 26006.4 -03462.7 -07.5842 26235.9
 02 06 2013  10 50  -20.9781 26006.8 -03462.8 -07.5842 26236.3
 02 06 2013  10 51  -20.9787 26006.6 -03462.6 -07.5840 26236.1
 02 06 2013  10 52  -20.9775 26006.8 -03462.6 -07.5839 26236.3
 02 06 2013  10 53  -20.9772 26007.3 -03462.7 -07.5839 26236.8
 02 06 2013  10 54  -20.9785 26007.9 -03463.0 -07.5844 26237.5
 02 06 2013  10 55  -20.9792 26008.0 -03463.1 -07.5846 26237.6
 02 06 2013  10 56  -20.9795 26007.4 -03462.9 -07.5844 26237.0
 02 06 2013  10 57  -20.9788 26007.8 -03463.2 -07.5848 26237.4
 02 06 2013  10 58  -20.9778 26007.6 -03463.1 -07.5847 26237.2
 02 06 2013  10 59  -20.9781 26008.0 -03463.4 -07.5852 26237.6
 02 06 2013  11 00  -20.9784 26007.8 -03463.4 -07.5854 26237.4
 02 06 2013  11 01  -20.9786 26007.5 -03463.4 -07.5853 26237.1
 02 06 2013  11 02  -20.9779 26007.5 -03463.4 -07.5853 26237.1
 02 06 2013  11 03  -20.9762 26008.7 -03463.9 -07.5861 26238.3
 02 06 2013  11 04  -20.9743 26009.8 -03464.2 -07.5866 26239.5
 02 06 2013  11 05  -20.9746 26010.5 -03464.4 -07.5867 26240.2
 02 06 2013  11 06  -20.9760 26010.3 -03464.1 -07.5862 26240.0
 02 06 2013  11 07  -20.9756 26010.6 -03464.1 -07.5859 26240.3
 02 06 2013  11 08  -20.9748 26010.9 -03464.0 -07.5858 26240.5
 02 06 2013  11 09  -20.9750 26010.6 -03464.0 -07.5857 26240.2
 02 06 2013  11 10  -20.9755 26010.1 -03463.9 -07.5857 26239.8
 02 06 2013  11 11  -20.9750 26009.5 -03463.8 -07.5857 26239.1
 02 06 2013  11 12  -20.9771 26007.2 -03463.1 -07.5849 26236.7
 02 06 2013  11 13  -20.9742 26006.7 -03463.2 -07.5852 26236.3
 02 06 2013  11 14  -20.9732 26004.9 -03463.0 -07.5854 26234.4
 02 06 2013  11 15  -20.9725 26004.1 -03463.4 -07.5863 26233.7
 02 06 2013  11 16  -20.9724 26002.5 -03463.4 -07.5869 26232.2
 02 06 2013  11 17  -20.9724 26001.5 -03463.8 -07.5879 26231.2
 02 06 2013  11 18  -20.9729 26001.2 -03464.3 -07.5893 26230.9
 02 06 2013  11 19  -20.9719 26001.8 -03465.3 -07.5912 26231.7
 02 06 2013  11 20  -20.9732 26001.4 -03465.6 -07.5919 26231.4
 02 06 2013  11 21  -20.9775 26001.0 -03465.6 -07.5920 26230.9
 02 06 2013  11 22  -20.9783 26000.9 -03465.7 -07.5923 26230.9
 02 06 2013  11 23  -20.9790 26000.2 -03465.6 -07.5923 26230.2
 02 06 2013  11 24  -20.9787 26000.9 -03466.2 -07.5933 26230.9
 02 06 2013  11 25  -20.9785 26001.7 -03466.6 -07.5940 26231.8
 02 06 2013  11 26  -20.9790 26002.3 -03466.9 -07.5945 26232.4
 02 06 2013  11 27  -20.9795 26002.7 -03466.9 -07.5944 26232.8
 02 06 2013  11 28  -20.9794 26003.5 -03467.1 -07.5946 26233.6
 02 06 2013  11 29  -20.9792 26002.7 -03466.8 -07.5941 26232.8
 02 06 2013  11 30  -20.9786 26002.5 -03466.7 -07.5939 26232.6
 02 06 2013  11 31  -20.9783 26003.3 -03466.9 -07.5942 26233.4
 02 06 2013  11 32  -20.9780 26004.3 -03467.1 -07.5944 26234.4
 02 06 2013  11 33  -20.9779 26004.8 -03467.1 -07.5943 26234.9
 02 06 2013  11 34  -20.9769 26004.8 -03466.9 -07.5938 26234.8
 02 06 2013  11 35  -20.9768 26005.1 -03466.9 -07.5935 26235.2
 02 06 2013  11 36  -20.9787 26005.2 -03466.5 -07.5928 26235.3
 02 06 2013  11 37  -20.9793 26006.4 -03466.7 -07.5929 26236.5
 02 06 2013  11 38  -20.9801 26007.1 -03466.8 -07.5928 26237.2
 02 06 2013  11 39  -20.9812 26008.8 -03467.1 -07.5930 26238.8
 02 06 2013  11 40  -20.9834 26010.5 -03467.3 -07.5929 26240.6
 02 06 2013  11 41  -20.9850 26011.1 -03466.8 -07.5917 26241.1
 02 06 2013  11 42  -20.9862 26010.5 -03466.0 -07.5902 26240.4
 02 06 2013  11 43  -20.9872 26009.7 -03465.4 -07.5891 26239.5
 02 06 2013  11 44  -20.9877 26008.2 -03464.7 -07.5879 26238.0
 02 06 2013  11 45  -20.9879 26008.1 -03464.6 -07.5879 26237.9
 02 06 2013  11 46  -20.9881 26010.1 -03465.5 -07.5892 26240.0
 02 06 2013  11 47  -20.9888 26010.6 -03465.6 -07.5893 26240.5
 02 06 2013  11 48  -20.9886 26010.5 -03465.4 -07.5888 26240.3
 02 06 2013  11 49  -20.9888 26010.8 -03465.3 -07.5886 26240.6
 02 06 2013  11 50  -20.9885 26011.2 -03465.4 -07.5886 26241.0
 02 06 2013  11 51  -20.9888 26011.9 -03465.5 -07.5887 26241.7
 02 06 2013  11 52  -20.9891 26012.1 -03465.5 -07.5886 26241.9
 02 06 2013  11 53  -20.9894 26012.8 -03465.6 -07.5886 26242.7
 02 06 2013  11 54  -20.9893 26013.8 -03465.7 -07.5886 26243.7
 02 06 2013  11 55  -20.9880 26014.4 -03465.5 -07.5880 26244.2
 02 06 2013  11 56  -20.9864 26014.0 -03465.1 -07.5871 26243.7
 02 06 2013  11 57  -20.9848 26014.5 -03465.1 -07.5869 26244.3
 02 06 2013  11 58  -20.9847 26016.5 -03465.7 -07.5878 26246.3
 02 06 2013  11 59  -20.9853 26017.6 -03465.9 -07.5878 26247.4
 02 06 2013  12 00  -20.9860 26018.0 -03465.7 -07.5873 26247.8
 02 06 2013  12 01  -20.9869 26018.3 -03465.4 -07.5867 26248.0
 02 06 2013  12 02  -20.9873 26018.6 -03465.3 -07.5864 26248.3
 02 06 2013  12 03  -20.9883 26018.5 -03465.2 -07.5860 26248.2
 02 06 2013  12 04  -20.9892 26019.0 -03465.2 -07.5860 26248.7
 02 06 2013  12 05  -20.9901 26019.5 -03465.3 -07.5861 26249.2
 02 06 2013  12 06  -20.9908 26019.3 -03465.1 -07.5856 26249.0
 02 06 2013  12 07  -20.9917 26019.4 -03465.1 -07.5856 26249.1
 02 06 2013  12 08  -20.9927 26019.4 -03465.1 -07.5857 26249.1
 02 06 2013  12 09  -20.9938 26019.5 -03465.2 -07.5858 26249.2
 02 06 2013  12 10  -20.9951 26020.2 -03465.5 -07.5862 26250.0
 02 06 2013  12 11  -20.9962 26020.3 -03465.4 -07.5860 26250.0
 02 06 2013  12 12  -20.9971 26020.1 -03465.1 -07.5855 26249.8
 02 06 2013  12 13  -20.9974 26019.6 -03464.8 -07.5850 26249.3
 02 06 2013  12 14  -20.9976 26019.3 -03464.7 -07.5849 26249.0
 02 06 2013  12 15  -20.9976 26020.0 -03465.0 -07.5853 26249.7
 02 06 2013  12 16  -20.9979 26020.5 -03465.1 -07.5854 26250.2
 02 06 2013  12 17  -20.9984 26020.4 -03465.0 -07.5852 26250.1
 02 06 2013  12 18  -20.9987 26020.2 -03464.9 -07.5849 26249.9
 02 06 2013  12 19  -20.9993 26020.8 -03464.9 -07.5849 26250.5
 02 06 2013  12 20  -21.0001 26021.5 -03465.2 -07.5851 26251.3
 02 06 2013  12 21  -20.9991 26021.7 -03465.0 -07.5847 26251.3
 02 06 2013  12 22  -20.9986 26022.5 -03465.1 -07.5848 26252.2
 02 06 2013  12 23  -20.9988 26024.5 -03465.6 -07.5853 26254.2
 02 06 2013  12 24  -20.9994 26025.2 -03465.5 -07.5849 26254.9
 02 06 2013  12 25  -20.9996 26024.4 -03464.9 -07.5838 26254.1
 02 06 2013  12 26  -20.9991 26023.8 -03464.5 -07.5831 26253.4
 02 06 2013  12 27  -20.9987 26024.5 -03464.7 -07.5833 26254.1
 02 06 2013  12 28  -20.9993 26025.6 -03465.1 -07.5838 26255.3
 02 06 2013  12 29  -20.9996 26026.0 -03465.1 -07.5837 26255.6
 02 06 2013  12 30  -20.9996 26026.0 -03464.9 -07.5832 26255.7
 02 06 2013  12 31  -20.9999 26026.3 -03464.8 -07.5830 26255.9
 02 06 2013  12 32  -20.9999 26026.3 -03464.6 -07.5827 26255.9
 02 06 2013  12 33  -21.0010 26027.1 -03464.8 -07.5828 26256.7
 02 06 2013  12 34  -21.0022 26028.1 -03465.1 -07.5832 26257.7
 02 06 2013  12 35  -21.0032 26028.7 -03465.1 -07.5831 26258.4
 02 06 2013  12 36  -21.0040 26028.8 -03464.9 -07.5825 26258.4
 02 06 2013  12 37  -21.0054 26028.9 -03464.8 -07.5822 26258.5
 02 06 2013  12 38  -21.0070 26029.2 -03464.8 -07.5821 26258.8
 02 06 2013  12 39  -21.0082 26029.7 -03464.8 -07.5820 26259.3
 02 06 2013  12 40  -21.0094 26030.3 -03464.9 -07.5820 26259.9
 02 06 2013  12 41  -21.0103 26030.6 -03464.8 -07.5817 26260.1
 02 06 2013  12 42  -21.0112 26030.6 -03464.7 -07.5815 26260.2
 02 06 2013  12 43  -21.0123 26030.3 -03464.4 -07.5810 26259.8
 02 06 2013  12 44  -21.0136 26030.6 -03464.4 -07.5810 26260.1
 02 06 2013  12 45  -21.0142 26030.5 -03464.3 -07.5808 26260.0
 02 06 2013  12 46  -21.0145 26030.3 -03464.1 -07.5804 26259.8
 02 06 2013  12 47  -21.0156 26030.8 -03464.3 -07.5806 26260.3
 02 06 2013  12 48  -21.0166 26031.3 -03464.4 -07.5808 26260.8
 02 06 2013  12 49  -21.0172 26031.5 -03464.3 -07.5805 26261.0
 02 06 2013  12 50  -21.0175 26031.8 -03464.3 -07.5803 26261.3
 02 06 2013  12 51  -21.0176 26031.7 -03464.0 -07.5797 26261.1
 02 06 2013  12 52  -21.0178 26032.1 -03464.0 -07.5796 26261.5
 02 06 2013  12 53  -21.0193 26032.8 -03464.1 -07.5796 26262.2
 02 06 2013  12 54  -21.0205 26033.8 -03464.2 -07.5795 26263.3
 02 06 2013  12 55  -21.0206 26033.4 -03463.6 -07.5784 26262.8
 02 06 2013  12 56  -21.0198 26031.5 -03462.6 -07.5768 26260.8
 02 06 2013  12 57  -21.0196 26029.9 -03462.0 -07.5759 26259.1
 02 06 2013  12 58  -21.0196 26030.2 -03462.2 -07.5762 26259.4
 02 06 2013  12 59  -21.0197 26031.0 -03462.5 -07.5767 26260.2
 02 06 2013  13 00  -21.0201 26032.2 -03462.8 -07.5769 26261.5
 02 06 2013  13 01  -21.0209 26032.6 -03462.6 -07.5765 26261.9
 02 06 2013  13 02  -21.0219 26034.0 -03462.7 -07.5763 26263.3
 02 06 2013  13 03  -21.0225 26034.1 -03462.3 -07.5753 26263.4
 02 06 2013  13 04  -21.0213 26034.7 -03462.0 -07.5746 26263.9
 02 06 2013  13 05  -21.0209 26037.1 -03462.6 -07.5751 26266.3
 02 06 2013  13 06  -21.0211 26040.4 -03463.4 -07.5758 26269.7
 02 06 2013  13 07  -21.0207 26039.8 -03462.3 -07.5737 26269.0
 02 06 2013  13 08  -21.0216 26037.5 -03460.8 -07.5711 26266.4
 02 06 2013  13 09  -21.0220 26034.2 -03459.3 -07.5689 26263.0
 02 06 2013  13 10  -21.0222 26032.3 -03458.7 -07.5680 26261.0
 02 06 2013  13 11  -21.0243 26034.5 -03460.1 -07.5704 26263.5
 02 06 2013  13 12  -21.0274 26038.3 -03461.6 -07.5727 26267.4
 02 06 2013  13 13  -21.0286 26040.8 -03462.0 -07.5727 26270.0
 02 06 2013  13 14  -21.0288 26043.5 -03462.2 -07.5723 26272.6
 02 06 2013  13 15  -21.0286 26043.6 -03461.2 -07.5702 26272.6
 02 06 2013  13 16  -21.0279 26042.5 -03459.8 -07.5675 26271.3
 02 06 2013  13 17  -21.0277 26040.4 -03458.5 -07.5654 26269.1
 02 06 2013  13 18  -21.0277 26039.8 -03458.2 -07.5648 26268.4
 02 06 2013  13 19  -21.0291 26041.1 -03458.9 -07.5659 26269.8
 02 06 2013  13 20  -21.0299 26042.9 -03459.5 -07.5668 26271.6
 02 06 2013  13 21  -21.0291 26042.8 -03459.1 -07.5660 26271.6
 02 06 2013  13 22  -21.0291 26043.5 -03459.1 -07.5658 26272.2
 02 06 2013  13 23  -21.0290 26042.6 -03458.6 -07.5649 26271.3
 02 06 2013  13 24  -21.0288 26039.2 -03457.1 -07.5626 26267.7
 02 06 2013  13 25  -21.0264 26035.5 -03455.8 -07.5608 26263.8
 02 06 2013  13 26  -21.0275 26035.7 -03456.5 -07.5625 26264.1
 02 06 2013  13 27  -21.0294 26037.7 -03458.0 -07.5650 26266.3
 02 06 2013  13 28  -21.0307 26039.9 -03458.9 -07.5664 26268.6
 02 06 2013  13 29  -21.0311 26039.3 -03458.5 -07.5656 26268.0
 02 06 2013  13 30  -21.0298 26036.3 -03457.1 -07.5636 26264.9
 02 06 2013  13 31  -21.0306 26036.3 -03457.3 -07.5639 26264.9
 02 06 2013  13 32  -21.0333 26039.9 -03459.1 -07.5669 26268.7
 02 06 2013  13 33  -21.0340 26040.5 -03459.0 -07.5663 26269.2
 02 06 2013  13 34  -21.0339 26039.9 -03458.3 -07.5651 26268.6
 02 06 2013  13 35  -21.0332 26039.3 -03457.8 -07.5641 26267.9
 02 06 2013  13 36  -21.0334 26040.3 -03458.0 -07.5642 26268.9
 02 06 2013  13 37  -21.0345 26041.5 -03458.1 -07.5643 26270.1
 02 06 2013  13 38  -21.0348 26042.4 -03458.0 -07.5637 26271.0
 02 06 2013  13 39  -21.0347 26043.7 -03457.8 -07.5629 26272.2
 02 06 2013  13 40  -21.0347 26043.1 -03457.0 -07.5613 26271.6
 02 06 2013  13 41  -21.0337 26041.8 -03455.9 -07.5594 26270.2
 02 06 2013  13 42  -21.0341 26042.4 -03456.0 -07.5594 26270.7
 02 06 2013  13 43  -21.0350 26044.0 -03456.5 -07.5600 26272.3
 02 06 2013  13 44  -21.0352 26044.3 -03456.1 -07.5591 26272.6
 02 06 2013  13 45  -21.0353 26045.2 -03456.0 -07.5585 26273.5
 02 06 2013  13 46  -21.0350 26044.7 -03455.1 -07.5568 26272.9
 02 06 2013  13 47  -21.0349 26044.5 -03454.6 -07.5556 26272.6
 02 06 2013  13 48  -21.0342 26043.4 -03453.8 -07.5542 26271.4
 02 06 2013  13 49  -21.0334 26042.6 -03453.2 -07.5532 26270.5
 02 06 2013  13 50  -21.0330 26042.4 -03453.0 -07.5528 26270.4
 02 06 2013  13 51  -21.0325 26042.0 -03452.6 -07.5520 26269.8
 02 06 2013  13 52  -21.0327 26043.0 -03452.7 -07.5521 26270.8
 02 06 2013  13 53  -21.0325 26043.2 -03452.5 -07.5516 26271.1
 02 06 2013  13 54  -21.0326 26042.7 -03452.0 -07.5505 26270.5
 02 06 2013  13 55  -21.0326 26042.1 -03451.4 -07.5494 26269.8
 02 06 2013  13 56  -21.0322 26041.4 -03450.8 -07.5485 26269.0
 02 06 2013  13 57  -21.0326 26041.5 -03450.7 -07.5481 26269.1
 02 06 2013  13 58  -21.0336 26042.4 -03450.9 -07.5483 26270.0
 02 06 2013  13 59  -21.0344 26043.0 -03450.9 -07.5481 26270.6
 02 06 2013  14 00  -21.0345 26043.2 -03450.5 -07.5473 26270.8
 02 06 2013  14 01  -21.0345 26042.9 -03450.0 -07.5462 26270.4
 02 06 2013  14 02  -21.0346 26043.5 -03450.0 -07.5460 26271.0
 02 06 2013  14 03  -21.0347 26043.1 -03449.6 -07.5452 26270.6
 02 06 2013  14 04  -21.0345 26042.1 -03448.9 -07.5440 26269.5
 02 06 2013  14 05  -21.0350 26042.5 -03448.9 -07.5440 26269.9
 02 06 2013  14 06  -21.0358 26043.2 -03449.1 -07.5442 26270.6
 02 06 2013  14 07  -21.0359 26042.2 -03448.4 -07.5429 26269.5
 02 06 2013  14 08  -21.0352 26041.1 -03447.6 -07.5416 26268.3
 02 06 2013  14 09  -21.0350 26040.4 -03447.2 -07.5410 26267.6
 02 06 2013  14 10  -21.0358 26037.6 -03446.2 -07.5395 26264.6
 02 06 2013  14 11  -21.0361 26037.7 -03446.5 -07.5401 26264.8
 02 06 2013  14 12  -21.0371 26038.7 -03447.1 -07.5412 26265.8
 02 06 2013  14 13  -21.0383 26038.7 -03447.1 -07.5413 26265.9
 02 06 2013  14 14  -21.0392 26038.5 -03447.2 -07.5415 26265.7
 02 06 2013  14 15  -21.0377 26034.9 -03445.9 -07.5396 26261.9
 02 06 2013  14 16  -21.0362 26031.9 -03445.0 -07.5387 26258.9
 02 06 2013  14 17  -21.0375 26031.9 -03445.8 -07.5403 26258.9
 02 06 2013  14 18  -21.0382 26031.7 -03446.4 -07.5416 26258.9
 02 06 2013  14 19  -21.0380 26031.4 -03446.8 -07.5425 26258.6
 02 06 2013  14 20  -21.0375 26031.2 -03447.2 -07.5435 26258.5
 02 06 2013  14 21  -21.0378 26031.1 -03447.7 -07.5446 26258.4
 02 06 2013  14 22  -21.0381 26030.7 -03447.9 -07.5452 26258.1
 02 06 2013  14 23  -21.0376 26030.4 -03448.1 -07.5457 26257.8
 02 06 2013  14 24  -21.0370 26030.0 -03448.3 -07.5462 26257.5
 02 06 2013  14 25  -21.0367 26029.8 -03448.5 -07.5467 26257.3
 02 06 2013  14 26  -21.0379 26030.4 -03449.0 -07.5477 26257.9
 02 06 2013  14 27  -21.0381 26030.3 -03449.2 -07.5481 26257.8
 02 06 2013  14 28  -21.0375 26030.2 -03449.3 -07.5483 26257.8
 02 06 2013  14 29  -21.0370 26029.7 -03449.2 -07.5483 26257.2
 02 06 2013  14 30  -21.0368 26029.3 -03449.3 -07.5487 26256.8
 02 06 2013  14 31  -21.0376 26030.3 -03450.1 -07.5500 26257.9
 02 06 2013  14 32  -21.0394 26030.9 -03450.5 -07.5507 26258.6
 02 06 2013  14 33  -21.0387 26030.5 -03450.0 -07.5498 26258.1
 02 06 2013  14 34  -21.0384 26030.1 -03449.6 -07.5491 26257.7
 02 06 2013  14 35  -21.0398 26031.2 -03450.2 -07.5501 26258.8
 02 06 2013  14 36  -21.0414 26032.2 -03450.7 -07.5509 26259.9
 02 06 2013  14 37  -21.0418 26032.0 -03450.5 -07.5504 26259.7
 02 06 2013  14 38  -21.0417 26031.9 -03450.2 -07.5499 26259.6
 02 06 2013  14 39  -21.0421 26032.7 -03450.4 -07.5501 26260.3
 02 06 2013  14 40  -21.0425 26033.1 -03450.5 -07.5501 26260.8
 02 06 2013  14 41  -21.0434 26033.6 -03450.6 -07.5501 26261.3
 02 06 2013  14 42  -21.0443 26034.8 -03450.9 -07.5504 26262.5
 02 06 2013  14 43  -21.0454 26035.4 -03450.9 -07.5502 26263.1
 02 06 2013  14 44  -21.0461 26036.8 -03451.2 -07.5505 26264.5
 02 06 2013  14 45  -21.0465 26038.0 -03451.2 -07.5502 26265.7
 02 06 2013  14 46  -21.0471 26038.6 -03451.0 -07.5496 26266.3
 02 06 2013  14 47  -21.0459 26037.5 -03449.9 -07.5476 26265.0
 02 06 2013  14 48  -21.0441 26036.8 -03449.2 -07.5463 26264.3
 02 06 2013  14 49  -21.0443 26037.2 -03449.4 -07.5465 26264.7
 02 06 2013  14 50  -21.0441 26037.9 -03449.7 -07.5469 26265.5
 02 06 2013  14 51  -21.0433 26038.5 -03449.7 -07.5469 26266.0
 02 06 2013  14 52  -21.0428 26038.1 -03449.4 -07.5462 26265.5
 02 06 2013  14 53  -21.0426 26038.0 -03449.1 -07.5457 26265.4
 02 06 2013  14 54  -21.0433 26038.3 -03449.1 -07.5456 26265.7
 02 06 2013  14 55  -21.0438 26039.9 -03449.7 -07.5464 26267.4
 02 06 2013  14 56  -21.0432 26040.4 -03449.5 -07.5459 26267.9
 02 06 2013  14 57  -21.0422 26040.6 -03449.3 -07.5453 26268.0
 02 06 2013  14 58  -21.0419 26039.9 -03448.8 -07.5446 26267.3
 02 06 2013  14 59  -21.0420 26039.2 -03448.6 -07.5442 26266.5
 02 06 2013  15 00  -21.0406 26038.1 -03448.1 -07.5435 26265.5
 02 06 2013  15 01  -21.0427 26038.4 -03448.5 -07.5443 26265.7
 02 06 2013  15 02  -21.0416 26037.8 -03448.2 -07.5438 26265.1
 02 06 2013  15 03  -21.0404 26036.5 -03447.5 -07.5427 26263.7
 02 06 2013  15 04  -21.0411 26035.8 -03447.4 -07.5427 26263.0
 02 06 2013  15 05  -21.0437 26037.7 -03448.5 -07.5445 26265.0
 02 06 2013  15 06  -21.0446 26037.4 -03448.4 -07.5444 26264.8
 02 06 2013  15 07  -21.0452 26035.8 -03447.7 -07.5433 26263.1
 02 06 2013  15 08  -21.0456 26036.6 -03447.8 -07.5433 26263.9
 02 06 2013  15 09  -21.0471 26037.7 -03448.5 -07.5444 26265.1
 02 06 2013  15 10  -21.0472 26038.2 -03448.6 -07.5446 26265.6
 02 06 2013  15 11  -21.0455 26039.6 -03449.2 -07.5455 26267.0
 02 06 2013  15 12  -21.0446 26039.8 -03449.1 -07.5453 26267.2
 02 06 2013  15 13  -21.0452 26040.9 -03449.5 -07.5457 26268.4
 02 06 2013  15 14  -21.0475 26043.0 -03450.2 -07.5466 26270.6
 02 06 2013  15 15  -21.0488 26044.6 -03450.5 -07.5467 26272.2
 02 06 2013  15 16  -21.0478 26044.9 -03449.9 -07.5455 26272.4
 02 06 2013  15 17  -21.0477 26045.7 -03449.7 -07.5448 26273.1
 02 06 2013  15 18  -21.0493 26045.8 -03449.3 -07.5439 26273.2
 02 06 2013  15 19  -21.0487 26044.4 -03448.2 -07.5419 26271.7
 02 06 2013  15 20  -21.0482 26043.6 -03447.7 -07.5410 26270.8
 02 06 2013  15 21  -21.0475 26042.5 -03447.0 -07.5399 26269.7
 02 06 2013  15 22  -21.0479 26042.5 -03447.1 -07.5400 26269.7
 02 06 2013  15 23  -21.0477 26042.5 -03447.0 -07.5398 26269.6
 02 06 2013  15 24  -21.0473 26042.3 -03446.9 -07.5396 26269.4
 02 06 2013  15 25  -21.0467 26041.7 -03446.6 -07.5391 26268.8
 02 06 2013  15 26  -21.0466 26041.4 -03446.5 -07.5391 26268.5
 02 06 2013  15 27  -21.0471 26041.4 -03446.5 -07.5391 26268.4
 02 06 2013  15 28  -21.0475 26041.5 -03446.5 -07.5391 26268.6
 02 06 2013  15 29  -21.0470 26041.2 -03446.3 -07.5387 26268.3
 02 06 2013  15 30  -21.0469 26041.3 -03446.3 -07.5387 26268.3
 02 06 2013  15 31  -21.0482 26042.0 -03446.7 -07.5393 26269.1
 02 06 2013  15 32  -21.0499 26042.8 -03446.9 -07.5396 26269.9
 02 06 2013  15 33  -21.0502 26042.8 -03446.7 -07.5391 26269.9
 02 06 2013  15 34  -21.0498 26041.6 -03446.0 -07.5380 26268.6
 02 06 2013  15 35  -21.0496 26040.9 -03445.6 -07.5374 26267.8
 02 06 2013  15 36  -21.0504 26040.4 -03445.5 -07.5373 26267.4
 02 06 2013  15 37  -21.0512 26040.0 -03445.4 -07.5372 26267.0
 02 06 2013  15 38  -21.0516 26038.8 -03445.0 -07.5366 26265.7
 02 06 2013  15 39  -21.0504 26036.9 -03444.4 -07.5359 26263.7
 02 06 2013  15 40  -21.0490 26035.2 -03444.1 -07.5357 26262.1
 02 06 2013  15 41  -21.0521 26036.9 -03445.2 -07.5377 26263.8
 02 06 2013  15 42  -21.0564 26039.8 -03446.6 -07.5398 26266.9
 02 06 2013  15 43  -21.0562 26038.3 -03445.7 -07.5382 26265.3
 02 06 2013  15 44  -21.0539 26036.6 -03444.9 -07.5369 26263.6
 02 06 2013  15 45  -21.0537 26036.4 -03445.1 -07.5376 26263.3
 02 06 2013  15 46  -21.0550 26036.0 -03445.4 -07.5382 26263.0
 02 06 2013  15 47  -21.0548 26035.3 -03445.3 -07.5382 26262.2
 02 06 2013  15 48  -21.0565 26035.2 -03445.6 -07.5390 26262.2
 02 06 2013  15 49  -21.0592 26034.6 -03445.6 -07.5390 26261.6
 02 06 2013  15 50  -21.0600 26033.8 -03445.1 -07.5382 26260.8
 02 06 2013  15 51  -21.0607 26032.5 -03444.6 -07.5376 26259.4
 02 06 2013  15 52  -21.0620 26032.1 -03444.6 -07.5377 26259.0
 02 06 2013  15 53  -21.0625 26032.3 -03444.8 -07.5380 26259.2
 02 06 2013  15 54  -21.0631 26032.4 -03445.1 -07.5385 26259.3
 02 06 2013  15 55  -21.0638 26032.5 -03445.3 -07.5390 26259.5
 02 06 2013  15 56  -21.0647 26032.2 -03445.3 -07.5392 26259.2
 02 06 2013  15 57  -21.0639 26031.3 -03445.0 -07.5388 26258.3
 02 06 2013  15 58  -21.0629 26030.9 -03445.1 -07.5391 26257.9
 02 06 2013  15 59  -21.0634 26031.1 -03445.5 -07.5400 26258.1
 02 06 2013  16 00  -21.0648 26031.3 -03445.9 -07.5407 26258.4
 02 06 2013  16 01  -21.0637 26030.9 -03445.7 -07.5404 26257.9
 02 06 2013  16 02  -21.0638 26031.2 -03446.1 -07.5411 26258.4
 02 06 2013  16 03  -21.0655 26032.8 -03446.9 -07.5424 26260.0
 02 06 2013  16 04  -21.0670 26032.9 -03446.8 -07.5421 26260.0
 02 06 2013  16 05  -21.0675 26033.4 -03446.9 -07.5422 26260.6
 02 06 2013  16 06  -21.0669 26032.8 -03446.6 -07.5417 26259.9
 02 06 2013  16 07  -21.0669 26032.4 -03446.4 -07.5414 26259.6
 02 06 2013  16 08  -21.0669 26032.5 -03446.6 -07.5418 26259.7
 02 06 2013  16 09  -21.0686 26033.0 -03447.0 -07.5426 26260.2
 02 06 2013  16 10  -21.0677 26031.6 -03446.3 -07.5415 26258.7
 02 06 2013  16 11  -21.0666 26030.3 -03445.8 -07.5407 26257.4
 02 06 2013  16 12  -21.0644 26030.1 -03445.9 -07.5411 26257.2
 02 06 2013  16 13  -21.0649 26031.0 -03446.8 -07.5428 26258.2
 02 06 2013  16 14  -21.0656 26031.4 -03447.2 -07.5435 26258.7
 02 06 2013  16 15  -21.0663 26033.8 -03448.2 -07.5449 26261.1
 02 06 2013  16 16  -21.0700 26036.1 -03449.1 -07.5463 26263.5
 02 06 2013  16 17  -21.0720 26037.5 -03449.3 -07.5462 26265.0
 02 06 2013  16 18  -21.0723 26036.9 -03448.5 -07.5446 26264.3
 02 06 2013  16 19  -21.0731 26036.2 -03447.7 -07.5432 26263.5
 02 06 2013  16 20  -21.0726 26035.2 -03446.9 -07.5418 26262.4
 02 06 2013  16 21  -21.0745 26035.7 -03447.1 -07.5420 26262.9
 02 06 2013  16 22  -21.0753 26036.4 -03447.1 -07.5419 26263.6
 02 06 2013  16 23  -21.0762 26037.1 -03447.1 -07.5416 26264.3
 02 06 2013  16 24  -21.0766 26037.5 -03446.9 -07.5411 26264.6
 02 06 2013  16 25  -21.0737 26037.0 -03446.1 -07.5396 26264.0
 02 06 2013  16 26  -21.0721 26034.2 -03444.6 -07.5371 26261.1
 02 06 2013  16 27  -21.0707 26031.5 -03443.5 -07.5355 26258.2
 02 06 2013  16 28  -21.0711 26032.1 -03444.4 -07.5372 26258.9
 02 06 2013  16 29  -21.0717 26032.0 -03444.8 -07.5381 26259.0
 02 06 2013  16 30  -21.0709 26031.6 -03444.9 -07.5383 26258.5
 02 06 2013  16 31  -21.0704 26031.7 -03445.3 -07.5392 26258.7
 02 06 2013  16 32  -21.0700 26032.2 -03445.8 -07.5402 26259.2
 02 06 2013  16 33  -21.0711 26032.4 -03446.1 -07.5409 26259.5
 02 06 2013  16 34  -21.0729 26033.3 -03446.5 -07.5414 26260.5
 02 06 2013  16 35  -21.0746 26035.0 -03447.1 -07.5423 26262.2
 02 06 2013  16 36  -21.0762 26036.5 -03447.6 -07.5429 26263.8
 02 06 2013  16 37  -21.0767 26036.6 -03447.3 -07.5423 26263.8
 02 06 2013  16 38  -21.0794 26037.2 -03447.3 -07.5420 26264.4
 02 06 2013  16 39  -21.0816 26037.8 -03447.2 -07.5415 26265.0
 02 06 2013  16 40  -21.0810 26036.9 -03446.3 -07.5400 26264.0
 02 06 2013  16 41  -21.0801 26036.0 -03445.7 -07.5389 26263.0
 02 06 2013  16 42  -21.0818 26036.1 -03445.8 -07.5391 26263.1
 02 06 2013  16 43  -21.0819 26034.6 -03445.1 -07.5381 26261.6
 02 06 2013  16 44  -21.0809 26032.5 -03444.5 -07.5372 26259.4
 02 06 2013  16 45  -21.0804 26030.6 -03443.9 -07.5367 26257.4
 02 06 2013  16 46  -21.0781 26028.9 -03443.6 -07.5364 26255.7
 02 06 2013  16 47  -21.0780 26027.4 -03443.4 -07.5364 26254.2
 02 06 2013  16 48  -21.0774 26026.1 -03443.3 -07.5366 26252.9
 02 06 2013  16 49  -21.0755 26025.4 -03443.6 -07.5373 26252.2
 02 06 2013  16 50  -21.0750 26025.9 -03444.5 -07.5391 26252.8
 02 06 2013  16 51  -21.0772 26028.1 -03445.9 -07.5415 26255.2
 02 06 2013  16 52  -21.0798 26030.3 -03446.7 -07.5428 26257.5
 02 06 2013  16 53  -21.0814 26031.4 -03446.7 -07.5425 26258.6
 02 06 2013  16 54  -21.0810 26031.3 -03446.1 -07.5412 26258.4
 02 06 2013  16 55  -21.0802 26030.3 -03445.5 -07.5400 26257.3
 02 06 2013  16 56  -21.0802 26028.9 -03444.8 -07.5391 26255.9
 02 06 2013  16 57  -21.0809 26028.5 -03444.7 -07.5389 26255.5
 02 06 2013  16 58  -21.0806 26027.6 -03444.4 -07.5384 26254.6
 02 06 2013  16 59  -21.0802 26027.2 -03444.3 -07.5384 26254.1
 02 06 2013  17 00  -21.0810 26027.3 -03444.5 -07.5388 26254.2
 02 06 2013  17 01  -21.0797 26026.5 -03444.1 -07.5381 26253.4
 02 06 2013  17 02  -21.0778 26025.7 -03444.0 -07.5381 26252.6
 02 06 2013  17 03  -21.0770 26025.4 -03444.0 -07.5384 26252.2
 02 06 2013  17 04  -21.0774 26026.1 -03444.6 -07.5394 26253.1
 02 06 2013  17 05  -21.0788 26027.0 -03445.1 -07.5402 26254.0
 02 06 2013  17 06  -21.0793 26027.3 -03445.0 -07.5399 26254.3
 02 06 2013  17 07  -21.0790 26027.5 -03444.8 -07.5394 26254.5
 02 06 2013  17 08  -21.0786 26027.7 -03444.7 -07.5392 26254.7
 02 06 2013  17 09  -21.0784 26027.8 -03444.6 -07.5389 26254.7
 02 06 2013  17 10  -21.0785 26027.9 -03444.5 -07.5387 26254.9
 02 06 2013  17 11  -21.0781 26028.1 -03444.4 -07.5383 26255.0
 02 06 2013  17 12  -21.0778 26028.0 -03444.3 -07.5381 26254.9
 02 06 2013  17 13  -21.0778 26027.6 -03444.1 -07.5378 26254.5
 02 06 2013  17 14  -21.0771 26026.9 -03443.7 -07.5372 26253.7
 02 06 2013  17 15  -21.0765 26026.9 -03443.8 -07.5374 26253.7
 02 06 2013  17 16  -21.0767 26026.6 -03443.9 -07.5377 26253.5
 02 06 2013  17 17  -21.0764 26026.1 -03443.7 -07.5375 26252.9
 02 06 2013  17 18  -21.0758 26025.6 -03443.6 -07.5374 26252.4
 02 06 2013  17 19  -21.0764 26025.4 -03443.7 -07.5376 26252.2
 02 06 2013  17 20  -21.0760 26025.3 -03443.7 -07.5376 26252.2
 02 06 2013  17 21  -21.0768 26025.3 -03443.8 -07.5378 26252.2
 02 06 2013  17 22  -21.0763 26025.2 -03443.6 -07.5375 26252.0
 02 06 2013  17 23  -21.0765 26025.4 -03443.7 -07.5376 26252.3
 02 06 2013  17 24  -21.0761 26025.8 -03443.7 -07.5376 26252.6
 02 06 2013  17 25  -21.0767 26026.4 -03443.9 -07.5378 26253.3
 02 06 2013  17 26  -21.0765 26026.4 -03443.8 -07.5375 26253.3
 02 06 2013  17 27  -21.0757 26026.3 -03443.6 -07.5372 26253.2
 02 06 2013  17 28  -21.0760 26026.6 -03443.6 -07.5371 26253.4
 02 06 2013  17 29  -21.0763 26026.6 -03443.5 -07.5367 26253.4
 02 06 2013  17 30  -21.0765 26026.8 -03443.4 -07.5365 26253.6
 02 06 2013  17 31  -21.0763 26026.4 -03443.1 -07.5359 26253.2
 02 06 2013  17 32  -21.0762 26026.8 -03443.0 -07.5358 26253.6
 02 06 2013  17 33  -21.0771 26028.3 -03443.5 -07.5363 26255.1
 02 06 2013  17 34  -21.0771 26028.6 -03443.4 -07.5360 26255.4
 02 06 2013  17 35  -21.0765 26028.4 -03443.1 -07.5355 26255.1
 02 06 2013  17 36  -21.0755 26027.0 -03442.5 -07.5345 26253.7
 02 06 2013  17 37  -21.0754 26026.3 -03442.2 -07.5342 26252.9
 02 06 2013  17 38  -21.0754 26025.8 -03442.2 -07.5342 26252.5
 02 06 2013  17 39  -21.0747 26025.3 -03442.0 -07.5340 26252.0
 02 06 2013  17 40  -21.0738 26024.8 -03441.9 -07.5340 26251.5
 02 06 2013  17 41  -21.0735 26024.5 -03442.1 -07.5343 26251.2
 02 06 2013  17 42  -21.0728 26023.5 -03441.9 -07.5342 26250.1
 02 06 2013  17 43  -21.0722 26022.7 -03441.8 -07.5343 26249.3
 02 06 2013  17 44  -21.0720 26022.4 -03442.0 -07.5348 26249.0
 02 06 2013  17 45  -21.0719 26022.4 -03442.2 -07.5352 26249.1
 02 06 2013  17 46  -21.0715 26022.4 -03442.4 -07.5356 26249.1
 02 06 2013  17 47  -21.0708 26021.9 -03442.3 -07.5357 26248.6
 02 06 2013  17 48  -21.0705 26021.6 -03442.3 -07.5358 26248.3
 02 06 2013  17 49  -21.0693 26021.0 -03442.3 -07.5359 26247.7
 02 06 2013  17 50  -21.0671 26019.2 -03441.8 -07.5352 26245.8
 02 06 2013  17 51  -21.0682 26020.3 -03442.5 -07.5366 26247.0
 02 06 2013  17 52  -21.0691 26021.2 -03443.1 -07.5375 26248.0
 02 06 2013  17 53  -21.0683 26021.2 -03443.0 -07.5372 26248.0
 02 06 2013  17 54  -21.0681 26021.4 -03443.0 -07.5373 26248.2
 02 06 2013  17 55  -21.0669 26020.9 -03442.8 -07.5370 26247.6
 02 06 2013  17 56  -21.0659 26020.5 -03442.8 -07.5370 26247.2
 02 06 2013  17 57  -21.0655 26020.3 -03442.8 -07.5371 26247.1
 02 06 2013  17 58  -21.0653 26020.4 -03442.9 -07.5374 26247.2
 02 06 2013  17 59  -21.0647 26019.7 -03442.7 -07.5371 26246.5
 02 06 2013  18 00  -21.0655 26019.7 -03442.8 -07.5374 26246.5
 02 06 2013  18 01  -21.0663 26019.6 -03442.8 -07.5374 26246.4
 02 06 2013  18 02  -21.0664 26018.9 -03442.6 -07.5372 26245.7
 02 06 2013  18 03  -21.0662 26018.5 -03442.6 -07.5371 26245.2
 02 06 2013  18 04  -21.0668 26018.9 -03442.9 -07.5377 26245.7
 02 06 2013  18 05  -21.0684 26019.8 -03443.4 -07.5385 26246.6
 02 06 2013  18 06  -21.0704 26020.9 -03443.7 -07.5389 26247.8
 02 06 2013  18 07  -21.0705 26021.2 -03443.5 -07.5384 26248.1
 02 06 2013  18 08  -21.0710 26021.4 -03443.3 -07.5379 26248.3
 02 06 2013  18 09  -21.0710 26021.5 -03443.1 -07.5374 26248.3
 02 06 2013  18 10  -21.0706 26021.1 -03442.8 -07.5370 26247.9
 02 06 2013  18 11  -21.0706 26021.1 -03442.7 -07.5368 26247.8
 02 06 2013  18 12  -21.0710 26020.4 -03442.3 -07.5361 26247.1
 02 06 2013  18 13  -21.0704 26019.6 -03441.8 -07.5353 26246.3
 02 06 2013  18 14  -21.0713 26020.1 -03442.0 -07.5355 26246.7
 02 06 2013  18 15  -21.0713 26020.7 -03442.2 -07.5356 26247.3
 02 06 2013  18 16  -21.0714 26021.0 -03442.2 -07.5357 26247.7
 02 06 2013  18 17  -21.0723 26022.1 -03442.6 -07.5361 26248.9
 02 06 2013  18 18  -21.0721 26022.1 -03442.3 -07.5355 26248.8
 02 06 2013  18 19  -21.0712 26022.6 -03442.3 -07.5354 26249.3
 02 06 2013  18 20  -21.0733 26021.9 -03441.9 -07.5348 26248.5
 02 06 2013  18 21  -21.0702 26019.9 -03440.6 -07.5326 26246.4
 02 06 2013  18 22  -21.0703 26021.4 -03441.5 -07.5340 26248.0
 02 06 2013  18 23  -21.0725 26023.0 -03442.2 -07.5351 26249.7
 02 06 2013  18 24  -21.0700 26023.2 -03441.8 -07.5341 26249.8
 02 06 2013  18 25  -21.0706 26025.0 -03442.3 -07.5346 26251.6
 02 06 2013  18 26  -21.0709 26026.2 -03442.5 -07.5347 26252.9
 02 06 2013  18 27  -21.0701 26026.2 -03442.1 -07.5339 26252.8
 02 06 2013  18 28  -21.0702 26026.3 -03441.8 -07.5333 26252.9
 02 06 2013  18 29  -21.0707 26026.5 -03441.6 -07.5329 26253.1
 02 06 2013  18 30  -21.0708 26025.6 -03441.0 -07.5316 26252.1
 02 06 2013  18 31  -21.0704 26024.9 -03440.4 -07.5307 26251.3
 02 06 2013  18 32  -21.0709 26025.0 -03440.3 -07.5305 26251.4
 02 06 2013  18 33  -21.0715 26025.0 -03440.2 -07.5302 26251.4
 02 06 2013  18 34  -21.0716 26025.2 -03440.1 -07.5299 26251.5
 02 06 2013  18 35  -21.0713 26024.5 -03439.7 -07.5293 26250.8
 02 06 2013  18 36  -21.0711 26023.6 -03439.3 -07.5286 26249.9
 02 06 2013  18 37  -21.0710 26022.7 -03438.9 -07.5280 26248.9
 02 06 2013  18 38  -21.0706 26021.5 -03438.4 -07.5274 26247.7
 02 06 2013  18 39  -21.0708 26021.1 -03438.3 -07.5272 26247.3
 02 06 2013  18 40  -21.0716 26021.2 -03438.5 -07.5276 26247.4
 02 06 2013  18 41  -21.0710 26020.3 -03438.2 -07.5272 26246.5
 02 06 2013  18 42  -21.0703 26019.5 -03438.0 -07.5270 26245.6
 02 06 2013  18 43  -21.0709 26018.8 -03438.0 -07.5272 26245.0
 02 06 2013  18 44  -21.0697 26017.7 -03437.8 -07.5270 26243.8
 02 06 2013  18 45  -21.0692 26016.6 -03437.7 -07.5271 26242.8
 02 06 2013  18 46  -21.0695 26015.5 -03437.6 -07.5272 26241.6
 02 06 2013  18 47  -21.0698 26014.2 -03437.3 -07.5270 26240.3
 02 06 2013  18 48  -21.0685 26012.8 -03436.9 -07.5266 26238.9
 02 06 2013  18 49  -21.0687 26012.6 -03437.4 -07.5275 26238.7
 02 06 2013  18 50  -21.0696 26012.9 -03438.0 -07.5288 26239.2
 02 06 2013  18 51  -21.0693 26012.5 -03438.1 -07.5291 26238.7
 02 06 2013  18 52  -21.0691 26012.1 -03438.2 -07.5296 26238.3
 02 06 2013  18 53  -21.0694 26012.6 -03438.8 -07.5307 26238.9
 02 06 2013  18 54  -21.0697 26012.4 -03439.1 -07.5314 26238.7
 02 06 2013  18 55  -21.0683 26012.0 -03439.2 -07.5317 26238.3
 02 06 2013  18 56  -21.0676 26011.1 -03439.2 -07.5321 26237.5
 02 06 2013  18 57  -21.0667 26010.3 -03439.4 -07.5326 26236.8
 02 06 2013  18 58  -21.0670 26009.8 -03439.5 -07.5331 26236.2
 02 06 2013  18 59  -21.0677 26010.1 -03440.0 -07.5339 26236.6
 02 06 2013  19 00  -21.0674 26009.8 -03440.1 -07.5342 26236.3
 02 06 2013  19 01  -21.0679 26009.7 -03440.2 -07.5345 26236.2
 02 06 2013  19 02  -21.0692 26010.7 -03440.7 -07.5353 26237.3
 02 06 2013  19 03  -21.0703 26011.7 -03441.1 -07.5359 26238.3
 02 06 2013  19 04  -21.0703 26012.6 -03441.3 -07.5361 26239.2
 02 06 2013  19 05  -21.0702 26013.3 -03441.5 -07.5363 26239.9
 02 06 2013  19 06  -21.0685 26010.4 -03440.0 -07.5338 26236.8
 02 06 2013  19 07  -21.0679 26009.4 -03439.5 -07.5331 26235.8
 02 06 2013  19 08  -21.0680 26009.4 -03439.8 -07.5338 26235.8
 02 06 2013  19 09  -21.0682 26009.2 -03440.0 -07.5343 26235.7
 02 06 2013  19 10  -21.0697 26010.7 -03440.9 -07.5358 26237.3
 02 06 2013  19 11  -21.0676 26010.2 -03440.8 -07.5356 26236.8
 02 06 2013  19 12  -21.0666 26009.0 -03440.4 -07.5351 26235.6
 02 06 2013  19 13  -21.0683 26008.9 -03440.5 -07.5355 26235.5
 02 06 2013  19 14  -21.0681 26009.5 -03440.8 -07.5359 26236.1
 02 06 2013  19 15  -21.0689 26010.5 -03441.3 -07.5367 26237.2
 02 06 2013  19 16  -21.0689 26010.7 -03441.4 -07.5368 26237.4
 02 06 2013  19 17  -21.0683 26010.2 -03441.1 -07.5363 26236.8
 02 06 2013  19 18  -21.0675 26009.6 -03440.9 -07.5360 26236.2
 02 06 2013  19 19  -21.0671 26009.4 -03440.9 -07.5361 26236.0
 02 06 2013  19 20  -21.0670 26009.3 -03440.9 -07.5363 26235.9
 02 06 2013  19 21  -21.0669 26008.9 -03440.9 -07.5362 26235.6
 02 06 2013  19 22  -21.0669 26008.8 -03440.9 -07.5363 26235.4
 02 06 2013  19 23  -21.0671 26008.9 -03441.1 -07.5367 26235.5
 02 06 2013  19 24  -21.0673 26008.9 -03441.3 -07.5370 26235.6
 02 06 2013  19 25  -21.0681 26009.0 -03441.4 -07.5374 26235.7
 02 06 2013  19 26  -21.0683 26008.3 -03441.3 -07.5373 26235.0
 02 06 2013  19 27  -21.0693 26008.3 -03441.4 -07.5376 26235.0
 02 06 2013  19 28  -21.0703 26008.3 -03441.6 -07.5380 26235.0
 02 06 2013  19 29  -21.0710 26008.2 -03441.6 -07.5381 26235.0
 02 06 2013  19 30  -21.0709 26008.0 -03441.5 -07.5379 26234.7
 02 06 2013  19 31  -21.0716 26008.6 -03442.0 -07.5387 26235.3
 02 06 2013  19 32  -21.0710 26007.9 -03441.8 -07.5385 26234.6
 02 06 2013  19 33  -21.0706 26006.7 -03441.5 -07.5382 26233.5
 02 06 2013  19 34  -21.0704 26005.9 -03441.4 -07.5382 26232.7
 02 06 2013  19 35  -21.0706 26005.6 -03441.6 -07.5387 26232.3
 02 06 2013  19 36  -21.0701 26004.7 -03441.5 -07.5388 26231.4
 02 06 2013  19 37  -21.0692 26003.9 -03441.4 -07.5388 26230.6
 02 06 2013  19 38  -21.0689 26004.0 -03441.8 -07.5396 26230.8
 02 06 2013  19 39  -21.0689 26004.4 -03442.2 -07.5404 26231.2
 02 06 2013  19 40  -21.0690 26004.5 -03442.5 -07.5409 26231.4
 02 06 2013  19 41  -21.0688 26004.4 -03442.5 -07.5411 26231.3
 02 06 2013  19 42  -21.0689 26004.5 -03442.7 -07.5415 26231.4
 02 06 2013  19 43  -21.0690 26004.3 -03442.8 -07.5418 26231.2
 02 06 2013  19 44  -21.0689 26004.2 -03442.9 -07.5419 26231.1
 02 06 2013  19 45  -21.0695 26004.1 -03443.0 -07.5421 26231.0
 02 06 2013  19 46  -21.0696 26004.2 -03443.0 -07.5422 26231.1
 02 06 2013  19 47  -21.0698 26003.8 -03442.9 -07.5421 26230.8
 02 06 2013  19 48  -21.0700 26003.6 -03442.9 -07.5421 26230.5
 02 06 2013  19 49  -21.0701 26003.9 -03443.0 -07.5423 26230.8
 02 06 2013  19 50  -21.0697 26003.3 -03442.9 -07.5422 26230.3
 02 06 2013  19 51  -21.0692 26002.8 -03442.8 -07.5422 26229.7
 02 06 2013  19 52  -21.0687 26002.8 -03443.0 -07.5427 26229.7
 02 06 2013  19 53  -21.0682 26002.4 -03443.1 -07.5429 26229.4
 02 06 2013  19 54  -21.0686 26002.8 -03443.4 -07.5435 26229.8
 02 06 2013  19 55  -21.0689 26003.3 -03443.7 -07.5439 26230.3
 02 06 2013  19 56  -21.0688 26003.6 -03443.9 -07.5444 26230.6
 02 06 2013  19 57  -21.0681 26003.0 -03443.8 -07.5442 26230.1
 02 06 2013  19 58  -21.0672 26002.3 -03443.6 -07.5440 26229.3
 02 06 2013  19 59  -21.0662 26002.2 -03443.8 -07.5444 26229.3
 02 06 2013  20 00  -21.0664 26002.6 -03444.2 -07.5451 26229.7
 02 06 2013  20 01  -21.0665 26002.9 -03444.4 -07.5455 26230.1
 02 06 2013  20 02  -21.0666 26003.0 -03444.3 -07.5454 26230.2
 02 06 2013  20 03  -21.0662 26002.4 -03444.1 -07.5450 26229.5
 02 06 2013  20 04  -21.0662 26002.5 -03444.2 -07.5452 26229.6
 02 06 2013  20 05  -21.0662 26003.5 -03444.6 -07.5459 26230.7
 02 06 2013  20 06  -21.0667 26004.7 -03445.2 -07.5467 26231.9
 02 06 2013  20 07  -21.0668 26005.4 -03445.4 -07.5471 26232.7
 02 06 2013  20 08  -21.0676 26006.8 -03446.0 -07.5479 26234.1
 02 06 2013  20 09  -21.0685 26007.5 -03446.1 -07.5480 26234.8
 02 06 2013  20 10  -21.0693 26007.7 -03446.0 -07.5476 26235.0
 02 06 2013  20 11  -21.0697 26007.9 -03445.9 -07.5474 26235.2
 02 06 2013  20 12  -21.0698 26007.4 -03445.6 -07.5469 26234.6
 02 06 2013  20 13  -21.0695 26006.4 -03445.1 -07.5462 26233.6
 02 06 2013  20 14  -21.0690 26005.8 -03444.9 -07.5457 26233.0
 02 06 2013  20 15  -21.0686 26005.4 -03444.8 -07.5457 26232.6
 02 06 2013  20 16  -21.0681 26005.3 -03444.8 -07.5459 26232.4
 02 06 2013  20 17  -21.0681 26005.3 -03445.0 -07.5461 26232.5
 02 06 2013  20 18  -21.0682 26005.3 -03445.1 -07.5463 26232.5
 02 06 2013  20 19  -21.0685 26005.1 -03445.1 -07.5464 26232.3
 02 06 2013  20 20  -21.0683 26004.3 -03444.7 -07.5459 26231.5
 02 06 2013  20 21  -21.0680 26003.8 -03444.6 -07.5457 26231.0
 02 06 2013  20 22  -21.0679 26003.7 -03444.7 -07.5460 26230.9
 02 06 2013  20 23  -21.0670 26003.5 -03444.7 -07.5461 26230.7
 02 06 2013  20 24  -21.0663 26003.6 -03444.8 -07.5462 26230.8
 02 06 2013  20 25  -21.0660 26003.8 -03444.9 -07.5464 26231.0
 02 06 2013  20 26  -21.0658 26003.9 -03445.0 -07.5465 26231.1
 02 06 2013  20 27  -21.0661 26004.0 -03445.0 -07.5466 26231.2
 02 06 2013  20 28  -21.0666 26004.2 -03445.1 -07.5468 26231.5
 02 06 2013  20 29  -21.0676 26005.2 -03445.5 -07.5473 26232.4
 02 06 2013  20 30  -21.0682 26005.6 -03445.6 -07.5475 26232.9
 02 06 2013  20 31  -21.0683 26005.3 -03445.4 -07.5471 26232.5
 02 06 2013  20 32  -21.0685 26004.3 -03444.9 -07.5462 26231.5
 02 06 2013  20 33  -21.0680 26004.0 -03444.6 -07.5456 26231.1
 02 06 2013  20 34  -21.0664 26004.1 -03444.5 -07.5455 26231.2
 02 06 2013  20 35  -21.0647 26003.9 -03444.6 -07.5457 26231.1
 02 06 2013  20 36  -21.0647 26004.1 -03444.9 -07.5463 26231.3
 02 06 2013  20 37  -21.0655 26005.1 -03445.6 -07.5476 26232.3
 02 06 2013  20 38  -21.0657 26005.3 -03445.9 -07.5482 26232.6
 02 06 2013  20 39  -21.0664 26005.7 -03446.2 -07.5487 26233.0
 02 06 2013  20 40  -21.0671 26005.6 -03446.2 -07.5488 26232.9
 02 06 2013  20 41  -21.0680 26004.9 -03446.0 -07.5484 26232.2
 02 06 2013  20 42  -21.0683 26004.1 -03445.6 -07.5479 26231.4
 02 06 2013  20 43  -21.0689 26003.4 -03445.4 -07.5476 26230.7
 02 06 2013  20 44  -21.0690 26002.4 -03445.1 -07.5472 26229.7
 02 06 2013  20 45  -21.0689 26001.3 -03444.7 -07.5466 26228.5
 02 06 2013  20 46  -21.0690 26000.8 -03444.6 -07.5465 26228.0
 02 06 2013  20 47  -21.0686 26001.1 -03444.8 -07.5470 26228.3
 02 06 2013  20 48  -21.0681 26001.4 -03445.0 -07.5474 26228.6
 02 06 2013  20 49  -21.0683 26001.3 -03445.0 -07.5474 26228.6
 02 06 2013  20 50  -21.0679 26001.1 -03444.9 -07.5473 26228.3
 02 06 2013  20 51  -21.0678 26001.1 -03444.9 -07.5472 26228.3
 02 06 2013  20 52  -21.0681 26001.7 -03445.2 -07.5477 26229.0
 02 06 2013  20 53  -21.0686 26002.2 -03445.6 -07.5483 26229.5
 02 06 2013  20 54  -21.0693 26001.9 -03445.5 -07.5482 26229.1
 02 06 2013  20 55  -21.0705 26001.5 -03445.3 -07.5480 26228.8
 02 06 2013  20 56  -21.0720 26002.0 -03445.5 -07.5483 26229.3
 02 06 2013  20 57  -21.0726 26002.4 -03445.7 -07.5486 26229.7
 02 06 2013  20 58  -21.0727 26003.2 -03446.0 -07.5490 26230.6
 02 06 2013  20 59  -21.0726 26004.2 -03446.4 -07.5495 26231.6
 02 06 2013  21 00  -21.0720 26005.2 -03446.7 -07.5499 26232.6
 02 06 2013  21 01  -21.0718 26006.0 -03446.9 -07.5500 26233.5
 02 06 2013  21 02  -21.0722 26006.6 -03446.9 -07.5499 26234.0
 02 06 2013  21 03  -21.0719 26006.4 -03446.5 -07.5492 26233.8
 02 06 2013  21 04  -21.0712 26006.0 -03446.0 -07.5482 26233.3
 02 06 2013  21 05  -21.0707 26005.9 -03445.7 -07.5475 26233.2
 02 06 2013  21 06  -21.0703 26005.7 -03445.4 -07.5470 26233.0
 02 06 2013  21 07  -21.0699 26005.7 -03445.3 -07.5467 26232.9
 02 06 2013  21 08  -21.0696 26005.9 -03445.3 -07.5467 26233.2
 02 06 2013  21 09  -21.0694 26006.1 -03445.3 -07.5466 26233.4
 02 06 2013  21 10  -21.0690 26006.2 -03445.2 -07.5465 26233.4
 02 06 2013  21 11  -21.0683 26006.2 -03445.2 -07.5463 26233.5
 02 06 2013  21 12  -21.0674 26006.4 -03445.2 -07.5462 26233.6
 02 06 2013  21 13  -21.0668 26006.5 -03445.2 -07.5462 26233.7
 02 06 2013  21 14  -21.0663 26006.8 -03445.3 -07.5463 26234.0
 02 06 2013  21 15  -21.0660 26007.1 -03445.4 -07.5465 26234.4
 02 06 2013  21 16  -21.0655 26007.4 -03445.5 -07.5466 26234.6
 02 06 2013  21 17  -21.0649 26007.6 -03445.5 -07.5467 26234.8
 02 06 2013  21 18  -21.0644 26007.8 -03445.6 -07.5467 26235.0
 02 06 2013  21 19  -21.0639 26008.0 -03445.6 -07.5468 26235.3
 02 06 2013  21 20  -21.0634 26008.2 -03445.7 -07.5468 26235.5
 02 06 2013  21 21  -21.0631 26008.5 -03445.8 -07.5471 26235.8
 02 06 2013  21 22  -21.0633 26008.6 -03445.9 -07.5471 26235.9
 02 06 2013  21 23  -21.0633 26008.5 -03445.8 -07.5470 26235.8
 02 06 2013  21 24  -21.0631 26008.8 -03445.8 -07.5470 26236.0
 02 06 2013  21 25  -21.0623 26009.4 -03446.1 -07.5473 26236.7
 02 06 2013  21 26  -21.0619 26010.5 -03446.6 -07.5481 26237.9
 02 06 2013  21 27  -21.0615 26011.3 -03446.9 -07.5486 26238.6
 02 06 2013  21 28  -21.0611 26011.7 -03447.1 -07.5489 26239.1
 02 06 2013  21 29  -21.0611 26011.6 -03447.0 -07.5487 26239.0
 02 06 2013  21 30  -21.0612 26011.6 -03446.8 -07.5483 26239.0
 02 06 2013  21 31  -21.0608 26012.0 -03446.9 -07.5484 26239.4
 02 06 2013  21 32  -21.0601 26012.7 -03447.1 -07.5486 26240.1
 02 06 2013  21 33  -21.0594 26013.1 -03447.2 -07.5488 26240.5
 02 06 2013  21 34  -21.0588 26013.4 -03447.3 -07.5488 26240.8
 02 06 2013  21 35  -21.0582 26013.6 -03447.3 -07.5488 26241.1
 02 06 2013  21 36  -21.0575 26013.9 -03447.4 -07.5488 26241.4
 02 06 2013  21 37  -21.0571 26014.1 -03447.4 -07.5488 26241.5
 02 06 2013  21 38  -21.0568 26014.3 -03447.5 -07.5489 26241.8
 02 06 2013  21 39  -21.0565 26014.2 -03447.4 -07.5487 26241.6
 02 06 2013  21 40  -21.0559 26014.0 -03447.1 -07.5483 26241.3
 02 06 2013  21 41  -21.0554 26013.4 -03446.8 -07.5478 26240.8
 02 06 2013  21 42  -21.0552 26013.1 -03446.6 -07.5474 26240.4
 02 06 2013  21 43  -21.0548 26012.9 -03446.5 -07.5472 26240.3
 02 06 2013  21 44  -21.0542 26013.0 -03446.5 -07.5471 26240.4
 02 06 2013  21 45  -21.0529 26013.2 -03446.6 -07.5473 26240.6
 02 06 2013  21 46  -21.0527 26013.1 -03446.5 -07.5472 26240.4
 02 06 2013  21 47  -21.0528 26012.6 -03446.3 -07.5469 26239.9
 02 06 2013  21 48  -21.0528 26012.2 -03446.1 -07.5467 26239.5
 02 06 2013  21 49  -21.0521 26012.9 -03446.4 -07.5470 26240.2
 02 06 2013  21 50  -21.0513 26013.8 -03446.9 -07.5478 26241.1
 02 06 2013  21 51  -21.0513 26013.3 -03446.8 -07.5477 26240.7
 02 06 2013  21 52  -21.0518 26012.4 -03446.3 -07.5470 26239.7
 02 06 2013  21 53  -21.0525 26011.7 -03446.0 -07.5465 26239.0
 02 06 2013  21 54  -21.0523 26011.5 -03445.9 -07.5463 26238.8
 02 06 2013  21 55  -21.0515 26012.0 -03446.0 -07.5465 26239.3
 02 06 2013  21 56  -21.0506 26012.4 -03446.2 -07.5468 26239.7
 02 06 2013  21 57  -21.0502 26012.0 -03446.1 -07.5467 26239.3
 02 06 2013  21 58  -21.0505 26011.5 -03445.9 -07.5465 26238.8
 02 06 2013  21 59  -21.0510 26011.4 -03445.9 -07.5464 26238.6
 02 06 2013  22 00  -21.0513 26011.5 -03445.9 -07.5465 26238.7
 02 06 2013  22 01  -21.0514 26011.8 -03446.1 -07.5468 26239.1
 02 06 2013  22 02  -21.0508 26012.6 -03446.5 -07.5474 26240.0
 02 06 2013  22 03  -21.0502 26013.2 -03446.8 -07.5478 26240.5
 02 06 2013  22 04  -21.0499 26013.0 -03446.7 -07.5477 26240.3
 02 06 2013  22 05  -21.0502 26012.4 -03446.4 -07.5473 26239.7
 02 06 2013  22 06  -21.0509 26011.7 -03446.1 -07.5467 26239.0
 02 06 2013  22 07  -21.0513 26011.7 -03446.0 -07.5466 26239.0
 02 06 2013  22 08  -21.0509 26012.0 -03446.2 -07.5468 26239.3
 02 06 2013  22 09  -21.0505 26012.2 -03446.3 -07.5469 26239.5
 02 06 2013  22 10  -21.0502 26012.4 -03446.4 -07.5471 26239.8
 02 06 2013  22 11  -21.0502 26011.9 -03446.2 -07.5468 26239.2
 02 06 2013  22 12  -21.0510 26011.0 -03445.8 -07.5462 26238.3
 02 06 2013  22 13  -21.0516 26010.7 -03445.6 -07.5459 26237.9
 02 06 2013  22 14  -21.0510 26011.3 -03445.8 -07.5462 26238.5
 02 06 2013  22 15  -21.0498 26011.5 -03446.0 -07.5465 26238.8
 02 06 2013  22 16  -21.0498 26010.4 -03445.6 -07.5460 26237.6
 02 06 2013  22 17  -21.0504 26009.8 -03445.2 -07.5454 26237.0
 02 06 2013  22 18  -21.0503 26010.2 -03445.4 -07.5458 26237.4
 02 06 2013  22 19  -21.0501 26010.7 -03445.8 -07.5463 26238.0
 02 06 2013  22 20  -21.0501 26011.1 -03446.0 -07.5468 26238.4
 02 06 2013  22 21  -21.0504 26011.5 -03446.3 -07.5472 26238.8
 02 06 2013  22 22  -21.0507 26012.0 -03446.6 -07.5476 26239.3
 02 06 2013  22 23  -21.0511 26012.0 -03446.6 -07.5478 26239.3
 02 06 2013  22 24  -21.0519 26011.3 -03446.3 -07.5473 26238.6
 02 06 2013  22 25  -21.0524 26011.4 -03446.3 -07.5473 26238.7
 02 06 2013  22 26  -21.0523 26011.6 -03446.3 -07.5473 26238.9
 02 06 2013  22 27  -21.0521 26012.1 -03446.5 -07.5475 26239.4
 02 06 2013  22 28  -21.0521 26012.3 -03446.7 -07.5478 26239.6
 02 06 2013  22 29  -21.0526 26011.6 -03446.4 -07.5473 26239.0
 02 06 2013  22 30  -21.0527 26011.1 -03446.1 -07.5468 26238.4
 02 06 2013  22 31  -21.0522 26011.3 -03446.1 -07.5468 26238.6
 02 06 2013  22 32  -21.0515 26011.5 -03446.2 -07.5470 26238.8
 02 06 2013  22 33  -21.0517 26011.3 -03446.2 -07.5471 26238.6
 02 06 2013  22 34  -21.0522 26011.1 -03446.2 -07.5470 26238.4
 02 06 2013  22 35  -21.0518 26011.9 -03446.5 -07.5476 26239.2
 02 06 2013  22 36  -21.0510 26012.7 -03447.0 -07.5483 26240.1
 02 06 2013  22 37  -21.0508 26013.2 -03447.2 -07.5488 26240.6
 02 06 2013  22 38  -21.0517 26013.4 -03447.4 -07.5490 26240.8
 02 06 2013  22 39  -21.0528 26013.3 -03447.4 -07.5491 26240.8
 02 06 2013  22 40  -21.0534 26013.1 -03447.2 -07.5488 26240.5
 02 06 2013  22 41  -21.0534 26013.1 -03447.2 -07.5486 26240.5
 02 06 2013  22 42  -21.0533 26012.9 -03447.0 -07.5483 26240.3
 02 06 2013  22 43  -21.0536 26012.9 -03446.9 -07.5482 26240.3
 02 06 2013  22 44  -21.0537 26013.1 -03447.0 -07.5484 26240.5
 02 06 2013  22 45  -21.0539 26013.1 -03447.1 -07.5485 26240.5
 02 06 2013  22 46  -21.0543 26012.4 -03446.7 -07.5478 26239.8
 02 06 2013  22 47  -21.0540 26011.8 -03446.4 -07.5473 26239.1
 02 06 2013  22 48  -21.0540 26011.2 -03446.0 -07.5467 26238.5
 02 06 2013  22 49  -21.0542 26011.3 -03446.1 -07.5468 26238.5
 02 06 2013  22 50  -21.0540 26010.8 -03445.9 -07.5466 26238.0
 02 06 2013  22 51  -21.0540 26010.3 -03445.7 -07.5463 26237.5
 02 06 2013  22 52  -21.0540 26010.3 -03445.7 -07.5464 26237.5
 02 06 2013  22 53  -21.0540 26010.4 -03445.9 -07.5466 26237.7
 02 06 2013  22 54  -21.0539 26010.2 -03445.9 -07.5466 26237.4
 02 06 2013  22 55  -21.0538 26009.9 -03445.8 -07.5465 26237.2
 02 06 2013  22 56  -21.0537 26009.9 -03445.7 -07.5465 26237.1
 02 06 2013  22 57  -21.0537 26010.0 -03445.9 -07.5467 26237.2
 02 06 2013  22 58  -21.0539 26010.0 -03446.0 -07.5469 26237.3
 02 06 2013  22 59  -21.0539 26010.2 -03446.1 -07.5471 26237.5
 02 06 2013  23 00  -21.0535 26010.7 -03446.3 -07.5475 26238.0
 02 06 2013  23 01  -21.0528 26011.1 -03446.5 -07.5478 26238.5
 02 06 2013  23 02  -21.0530 26011.4 -03446.7 -07.5481 26238.7
 02 06 2013  23 03  -21.0538 26011.7 -03446.9 -07.5485 26239.1
 02 06 2013  23 04  -21.0550 26011.7 -03446.9 -07.5485 26239.0
 02 06 2013  23 05  -21.0554 26012.0 -03447.1 -07.5488 26239.4
 02 06 2013  23 06  -21.0554 26012.1 -03447.1 -07.5487 26239.5
 02 06 2013  23 07  -21.0554 26012.1 -03446.9 -07.5484 26239.4
 02 06 2013  23 08  -21.0555 26012.2 -03447.0 -07.5484 26239.6
 02 06 2013  23 09  -21.0556 26012.1 -03446.9 -07.5483 26239.5
 02 06 2013  23 10  -21.0556 26011.8 -03446.6 -07.5479 26239.1
 02 06 2013  23 11  -21.0556 26011.4 -03446.4 -07.5476 26238.7
 02 06 2013  23 12  -21.0559 26010.9 -03446.2 -07.5472 26238.2
 02 06 2013  23 13  -21.0564 26010.6 -03446.0 -07.5469 26237.8
 02 06 2013  23 14  -21.0568 26010.0 -03445.8 -07.5465 26237.3
 02 06 2013  23 15  -21.0573 26009.7 -03445.7 -07.5464 26237.0
 02 06 2013  23 16  -21.0575 26009.7 -03445.7 -07.5463 26236.9
 02 06 2013  23 17  -21.0573 26009.7 -03445.7 -07.5464 26236.9
 02 06 2013  23 18  -21.0572 26009.6 -03445.6 -07.5463 26236.9
 02 06 2013  23 19  -21.0571 26009.6 -03445.7 -07.5464 26236.8
 02 06 2013  23 20  -21.0572 26009.6 -03445.7 -07.5465 26236.9
 02 06 2013  23 21  -21.0572 26010.0 -03445.9 -07.5469 26237.2
 02 06 2013  23 22  -21.0573 26009.9 -03446.0 -07.5469 26237.2
 02 06 2013  23 23  -21.0573 26009.8 -03445.9 -07.5469 26237.0
 02 06 2013  23 24  -21.0572 26009.8 -03445.9 -07.5469 26237.0
 02 06 2013  23 25  -21.0570 26009.7 -03445.9 -07.5469 26237.0
 02 06 2013  23 26  -21.0568 26009.6 -03445.9 -07.5468 26236.9
 02 06 2013  23 27  -21.0567 26009.4 -03445.8 -07.5467 26236.6
 02 06 2013  23 28  -21.0567 26009.6 -03445.9 -07.5468 26236.8
 02 06 2013  23 29  -21.0567 26009.8 -03446.0 -07.5471 26237.1
 02 06 2013  23 30  -21.0565 26010.1 -03446.2 -07.5474 26237.4
 02 06 2013  23 31  -21.0567 26010.3 -03446.3 -07.5476 26237.6
 02 06 2013  23 32  -21.0571 26010.4 -03446.4 -07.5478 26237.8
 02 06 2013  23 33  -21.0572 26010.6 -03446.5 -07.5479 26237.9
 02 06 2013  23 34  -21.0573 26010.7 -03446.5 -07.5480 26238.0
 02 06 2013  23 35  -21.0574 26011.0 -03446.7 -07.5482 26238.3
 02 06 2013  23 36  -21.0573 26011.0 -03446.7 -07.5482 26238.4
 02 06 2013  23 37  -21.0572 26011.1 -03446.7 -07.5482 26238.4
 02 06 2013  23 38  -21.0574 26010.6 -03446.5 -07.5478 26238.0
 02 06 2013  23 39  -21.0578 26010.3 -03446.3 -07.5476 26237.7
 02 06 2013  23 40  -21.0582 26010.5 -03446.4 -07.5477 26237.8
 02 06 2013  23 41  -21.0586 26010.7 -03446.5 -07.5478 26238.0
 02 06 2013  23 42  -21.0588 26011.1 -03446.7 -07.5481 26238.4
 02 06 2013  23 43  -21.0591 26011.1 -03446.7 -07.5481 26238.5
 02 06 2013  23 44  -21.0595 26011.3 -03446.7 -07.5482 26238.7
 02 06 2013  23 45  -21.0598 26011.5 -03446.8 -07.5484 26238.9
 02 06 2013  23 46  -21.0602 26011.4 -03446.8 -07.5483 26238.8
 02 06 2013  23 47  -21.0602 26011.4 -03446.7 -07.5481 26238.7
 02 06 2013  23 48  -21.0599 26011.5 -03446.7 -07.5480 26238.8
 02 06 2013  23 49  -21.0594 26011.2 -03446.5 -07.5477 26238.5
 02 06 2013  23 50  -21.0588 26010.9 -03446.2 -07.5473 26238.2
 02 06 2013  23 51  -21.0585 26010.6 -03446.1 -07.5470 26237.9
 02 06 2013  23 52  -21.0583 26010.7 -03446.2 -07.5472 26238.0
 02 06 2013  23 53  -21.0581 26010.7 -03446.2 -07.5472 26238.0
 02 06 2013  23 54  -21.0577 26010.7 -03446.2 -07.5472 26238.0
 02 06 2013  23 55  -21.0572 26010.7 -03446.2 -07.5473 26238.0
 02 06 2013  23 56  -21.0569 26011.0 -03446.4 -07.5476 26238.4
 02 06 2013  23 57  -21.0565 26011.1 -03446.5 -07.5478 26238.5
 02 06 2013  23 58  -21.0558 26011.1 -03446.5 -07.5478 26238.5
