SAO LUIS EMBRACE-03 <214> 1 Min. Reported data

 DD MM YYYY  HH MM   D(Deg)  H(nT)   Z(nT)   I(Deg)   F(nT)

 02 08 2013  00 00  -21.0276 26036.7 -03469.0 -07.5891 26266.8
 02 08 2013  00 01  -21.0279 26036.7 -03469.0 -07.5891 26266.7
 02 08 2013  00 02  -21.0279 26036.6 -03469.0 -07.5891 26266.7
 02 08 2013  00 03  -21.0279 26036.5 -03469.0 -07.5891 26266.6
 02 08 2013  00 04  -21.0280 26036.5 -03468.9 -07.5890 26266.6
 02 08 2013  00 05  -21.0279 26036.5 -03468.9 -07.5890 26266.6
 02 08 2013  00 06  -21.0280 26036.5 -03468.9 -07.5890 26266.5
 02 08 2013  00 07  -21.0279 26036.5 -03468.9 -07.5890 26266.5
 02 08 2013  00 08  -21.0278 26036.5 -03468.9 -07.5890 26266.5
 02 08 2013  00 09  -21.0277 26036.5 -03469.0 -07.5891 26266.6
 02 08 2013  00 10  -21.0275 26036.6 -03469.0 -07.5891 26266.6
 02 08 2013  00 11  -21.0275 26036.5 -03469.0 -07.5891 26266.6
 02 08 2013  00 12  -21.0275 26036.5 -03469.0 -07.5891 26266.6
 02 08 2013  00 13  -21.0274 26036.5 -03469.0 -07.5891 26266.6
 02 08 2013  00 14  -21.0274 26036.5 -03469.0 -07.5891 26266.5
 02 08 2013  00 15  -21.0274 26036.4 -03469.0 -07.5892 26266.5
 02 08 2013  00 16  -21.0273 26036.4 -03469.0 -07.5892 26266.5
 02 08 2013  00 17  -21.0272 26036.3 -03469.0 -07.5891 26266.4
 02 08 2013  00 18  -21.0271 26036.3 -03469.0 -07.5891 26266.4
 02 08 2013  00 19  -21.0271 26036.2 -03469.0 -07.5892 26266.3
 02 08 2013  00 20  -21.0271 26036.1 -03468.9 -07.5891 26266.2
 02 08 2013  00 21  -21.0271 26036.1 -03469.0 -07.5892 26266.1
 02 08 2013  00 22  -21.0270 26035.9 -03468.9 -07.5891 26266.0
 02 08 2013  00 23  -21.0271 26035.9 -03468.9 -07.5891 26266.0
 02 08 2013  00 24  -21.0270 26035.8 -03468.9 -07.5891 26265.8
 02 08 2013  00 25  -21.0270 26035.6 -03468.8 -07.5891 26265.7
 02 08 2013  00 26  -21.0270 26035.6 -03468.8 -07.5891 26265.7
 02 08 2013  00 27  -21.0268 26035.6 -03468.9 -07.5891 26265.7
 02 08 2013  00 28  -21.0266 26035.6 -03468.9 -07.5892 26265.7
 02 08 2013  00 29  -21.0265 26035.6 -03468.9 -07.5892 26265.6
 02 08 2013  00 30  -21.0265 26035.5 -03468.9 -07.5893 26265.6
 02 08 2013  00 31  -21.0264 26035.4 -03468.9 -07.5893 26265.5
 02 08 2013  00 32  -21.0263 26035.5 -03469.0 -07.5894 26265.5
 02 08 2013  00 33  -21.0262 26035.5 -03469.0 -07.5895 26265.6
 02 08 2013  00 34  -21.0261 26035.5 -03469.1 -07.5896 26265.6
 02 08 2013  00 35  -21.0261 26035.6 -03469.2 -07.5897 26265.7
 02 08 2013  00 36  -21.0261 26035.7 -03469.2 -07.5899 26265.9
 02 08 2013  00 37  -21.0261 26035.8 -03469.3 -07.5900 26266.0
 02 08 2013  00 38  -21.0261 26035.8 -03469.3 -07.5900 26265.9
 02 08 2013  00 39  -21.0261 26035.7 -03469.3 -07.5900 26265.8
 02 08 2013  00 40  -21.0260 26035.7 -03469.3 -07.5900 26265.9
 02 08 2013  00 41  -21.0260 26035.6 -03469.3 -07.5900 26265.8
 02 08 2013  00 42  -21.0260 26035.6 -03469.3 -07.5900 26265.7
 02 08 2013  00 43  -21.0259 26035.6 -03469.3 -07.5900 26265.7
 02 08 2013  00 44  -21.0258 26035.6 -03469.3 -07.5901 26265.7
 02 08 2013  00 45  -21.0258 26035.6 -03469.3 -07.5901 26265.8
 02 08 2013  00 46  -21.0257 26035.5 -03469.3 -07.5901 26265.7
 02 08 2013  00 47  -21.0256 26035.5 -03469.3 -07.5901 26265.6
 02 08 2013  00 48  -21.0255 26035.7 -03469.4 -07.5902 26265.8
 02 08 2013  00 49  -21.0254 26035.9 -03469.5 -07.5905 26266.0
 02 08 2013  00 50  -21.0256 26035.6 -03469.5 -07.5904 26265.8
 02 08 2013  00 51  -21.0258 26035.3 -03469.3 -07.5901 26265.4
 02 08 2013  00 52  -21.0256 26035.1 -03469.2 -07.5900 26265.2
 02 08 2013  00 53  -21.0254 26034.7 -03469.0 -07.5897 26264.8
 02 08 2013  00 54  -21.0254 26034.4 -03468.9 -07.5895 26264.5
 02 08 2013  00 55  -21.0256 26034.3 -03469.0 -07.5897 26264.4
 02 08 2013  00 56  -21.0258 26034.3 -03469.0 -07.5898 26264.4
 02 08 2013  00 57  -21.0260 26034.5 -03469.1 -07.5900 26264.6
 02 08 2013  00 58  -21.0260 26034.6 -03469.3 -07.5902 26264.7
 02 08 2013  00 59  -21.0259 26034.8 -03469.3 -07.5904 26264.9
 02 08 2013  01 00  -21.0257 26034.9 -03469.4 -07.5905 26265.0
 02 08 2013  01 01  -21.0254 26034.7 -03469.3 -07.5904 26264.8
 02 08 2013  01 02  -21.0251 26034.5 -03469.3 -07.5903 26264.6
 02 08 2013  01 03  -21.0246 26034.5 -03469.3 -07.5903 26264.7
 02 08 2013  01 04  -21.0244 26034.6 -03469.3 -07.5904 26264.8
 02 08 2013  01 05  -21.0241 26034.8 -03469.5 -07.5907 26264.9
 02 08 2013  01 06  -21.0240 26035.0 -03469.6 -07.5910 26265.2
 02 08 2013  01 07  -21.0238 26035.3 -03469.8 -07.5913 26265.5
 02 08 2013  01 08  -21.0237 26035.2 -03469.9 -07.5914 26265.4
 02 08 2013  01 09  -21.0238 26035.1 -03469.8 -07.5913 26265.3
 02 08 2013  01 10  -21.0237 26035.2 -03469.9 -07.5914 26265.4
 02 08 2013  01 11  -21.0236 26035.1 -03469.9 -07.5914 26265.3
 02 08 2013  01 12  -21.0237 26035.2 -03469.9 -07.5916 26265.5
 02 08 2013  01 13  -21.0239 26035.2 -03470.0 -07.5916 26265.4
 02 08 2013  01 14  -21.0241 26035.1 -03469.9 -07.5916 26265.3
 02 08 2013  01 15  -21.0242 26035.2 -03470.0 -07.5916 26265.4
 02 08 2013  01 16  -21.0244 26035.2 -03470.0 -07.5917 26265.4
 02 08 2013  01 17  -21.0245 26035.2 -03470.0 -07.5917 26265.5
 02 08 2013  01 18  -21.0246 26035.2 -03470.0 -07.5917 26265.4
 02 08 2013  01 19  -21.0246 26035.2 -03470.0 -07.5916 26265.4
 02 08 2013  01 20  -21.0246 26035.2 -03470.0 -07.5917 26265.5
 02 08 2013  01 21  -21.0246 26035.2 -03470.0 -07.5916 26265.4
 02 08 2013  01 22  -21.0246 26035.2 -03470.0 -07.5916 26265.4
 02 08 2013  01 23  -21.0247 26035.1 -03470.0 -07.5916 26265.4
 02 08 2013  01 24  -21.0247 26035.1 -03469.9 -07.5915 26265.3
 02 08 2013  01 25  -21.0246 26035.0 -03469.9 -07.5915 26265.2
 02 08 2013  01 26  -21.0244 26035.1 -03469.9 -07.5914 26265.3
 02 08 2013  01 27  -21.0244 26035.0 -03469.8 -07.5914 26265.2
 02 08 2013  01 28  -21.0243 26034.9 -03469.8 -07.5914 26265.1
 02 08 2013  01 29  -21.0242 26034.8 -03469.8 -07.5913 26265.0
 02 08 2013  01 30  -21.0242 26034.8 -03469.8 -07.5913 26264.9
 02 08 2013  01 31  -21.0242 26034.8 -03469.8 -07.5914 26265.0
 02 08 2013  01 32  -21.0242 26034.8 -03469.8 -07.5914 26265.0
 02 08 2013  01 33  -21.0242 26034.7 -03469.7 -07.5913 26264.9
 02 08 2013  01 34  -21.0241 26034.7 -03469.8 -07.5913 26264.9
 02 08 2013  01 35  -21.0241 26034.7 -03469.7 -07.5913 26264.9
 02 08 2013  01 36  -21.0240 26034.7 -03469.7 -07.5913 26264.8
 02 08 2013  01 37  -21.0238 26034.6 -03469.7 -07.5912 26264.8
 02 08 2013  01 38  -21.0238 26034.6 -03469.7 -07.5912 26264.8
 02 08 2013  01 39  -21.0236 26034.6 -03469.7 -07.5912 26264.8
 02 08 2013  01 40  -21.0235 26034.6 -03469.7 -07.5913 26264.8
 02 08 2013  01 41  -21.0234 26034.6 -03469.8 -07.5913 26264.8
 02 08 2013  01 42  -21.0233 26034.7 -03469.8 -07.5914 26264.9
 02 08 2013  01 43  -21.0232 26034.7 -03469.8 -07.5914 26264.9
 02 08 2013  01 44  -21.0230 26034.7 -03469.8 -07.5915 26264.9
 02 08 2013  01 45  -21.0229 26034.7 -03469.8 -07.5914 26264.9
 02 08 2013  01 46  -21.0228 26034.6 -03469.8 -07.5914 26264.8
 02 08 2013  01 47  -21.0227 26034.6 -03469.8 -07.5915 26264.8
 02 08 2013  01 48  -21.0227 26034.5 -03469.8 -07.5915 26264.7
 02 08 2013  01 49  -21.0226 26034.4 -03469.8 -07.5914 26264.6
 02 08 2013  01 50  -21.0226 26034.4 -03469.8 -07.5914 26264.6
 02 08 2013  01 51  -21.0226 26034.3 -03469.8 -07.5914 26264.5
 02 08 2013  01 52  -21.0224 26034.2 -03469.7 -07.5914 26264.4
 02 08 2013  01 53  -21.0223 26034.1 -03469.7 -07.5914 26264.3
 02 08 2013  01 54  -21.0223 26034.0 -03469.7 -07.5914 26264.2
 02 08 2013  01 55  -21.0223 26033.9 -03469.7 -07.5915 26264.1
 02 08 2013  01 56  -21.0221 26034.0 -03469.8 -07.5915 26264.2
 02 08 2013  01 57  -21.0219 26034.0 -03469.8 -07.5916 26264.2
 02 08 2013  01 58  -21.0218 26034.0 -03469.8 -07.5916 26264.2
 02 08 2013  01 59  -21.0219 26033.9 -03469.8 -07.5917 26264.1
 02 08 2013  02 00  -21.0219 26033.8 -03469.8 -07.5917 26264.0
 02 08 2013  02 01  -21.0219 26033.7 -03469.8 -07.5917 26263.9
 02 08 2013  02 02  -21.0218 26033.8 -03469.8 -07.5918 26264.0
 02 08 2013  02 03  -21.0217 26033.8 -03469.9 -07.5919 26264.0
 02 08 2013  02 04  -21.0216 26033.8 -03469.9 -07.5920 26264.0
 02 08 2013  02 05  -21.0216 26033.7 -03469.9 -07.5920 26263.9
 02 08 2013  02 06  -21.0217 26033.7 -03470.0 -07.5921 26263.9
 02 08 2013  02 07  -21.0217 26033.7 -03470.0 -07.5921 26263.9
 02 08 2013  02 08  -21.0215 26033.8 -03470.0 -07.5922 26264.0
 02 08 2013  02 09  -21.0215 26033.7 -03470.0 -07.5922 26263.9
 02 08 2013  02 10  -21.0214 26033.8 -03470.1 -07.5923 26264.1
 02 08 2013  02 11  -21.0214 26033.8 -03470.1 -07.5924 26264.0
 02 08 2013  02 12  -21.0215 26033.6 -03470.1 -07.5923 26263.9
 02 08 2013  02 13  -21.0215 26033.5 -03470.0 -07.5922 26263.7
 02 08 2013  02 14  -21.0214 26033.3 -03470.0 -07.5922 26263.6
 02 08 2013  02 15  -21.0214 26033.3 -03470.0 -07.5921 26263.5
 02 08 2013  02 16  -21.0214 26033.2 -03469.9 -07.5921 26263.4
 02 08 2013  02 17  -21.0213 26033.0 -03469.9 -07.5921 26263.3
 02 08 2013  02 18  -21.0213 26033.0 -03469.9 -07.5921 26263.3
 02 08 2013  02 19  -21.0212 26033.1 -03470.0 -07.5922 26263.3
 02 08 2013  02 20  -21.0212 26033.0 -03469.9 -07.5922 26263.2
 02 08 2013  02 21  -21.0210 26033.2 -03470.1 -07.5924 26263.4
 02 08 2013  02 22  -21.0210 26033.0 -03470.0 -07.5924 26263.3
 02 08 2013  02 23  -21.0208 26033.3 -03470.1 -07.5926 26263.5
 02 08 2013  02 24  -21.0206 26033.2 -03470.2 -07.5927 26263.5
 02 08 2013  02 25  -21.0206 26033.1 -03470.1 -07.5926 26263.4
 02 08 2013  02 26  -21.0205 26033.1 -03470.2 -07.5927 26263.4
 02 08 2013  02 27  -21.0205 26033.0 -03470.2 -07.5927 26263.3
 02 08 2013  02 28  -21.0206 26033.1 -03470.2 -07.5928 26263.4
 02 08 2013  02 29  -21.0205 26033.1 -03470.3 -07.5928 26263.4
 02 08 2013  02 30  -21.0204 26033.0 -03470.2 -07.5928 26263.2
 02 08 2013  02 31  -21.0204 26033.0 -03470.3 -07.5929 26263.3
 02 08 2013  02 32  -21.0205 26032.9 -03470.2 -07.5929 26263.2
 02 08 2013  02 33  -21.0205 26032.9 -03470.3 -07.5929 26263.2
 02 08 2013  02 34  -21.0205 26032.9 -03470.3 -07.5929 26263.2
 02 08 2013  02 35  -21.0205 26032.8 -03470.3 -07.5929 26263.1
 02 08 2013  02 36  -21.0204 26032.8 -03470.3 -07.5929 26263.1
 02 08 2013  02 37  -21.0204 26032.7 -03470.3 -07.5930 26263.0
 02 08 2013  02 38  -21.0204 26032.6 -03470.2 -07.5930 26262.9
 02 08 2013  02 39  -21.0204 26032.5 -03470.2 -07.5930 26262.8
 02 08 2013  02 40  -21.0205 26032.5 -03470.3 -07.5930 26262.8
 02 08 2013  02 41  -21.0205 26032.5 -03470.3 -07.5931 26262.8
 02 08 2013  02 42  -21.0206 26032.4 -03470.3 -07.5931 26262.7
 02 08 2013  02 43  -21.0207 26032.4 -03470.3 -07.5931 26262.7
 02 08 2013  02 44  -21.0208 26032.4 -03470.3 -07.5931 26262.7
 02 08 2013  02 45  -21.0207 26032.3 -03470.3 -07.5931 26262.6
 02 08 2013  02 46  -21.0207 26032.3 -03470.3 -07.5932 26262.6
 02 08 2013  02 47  -21.0208 26032.3 -03470.3 -07.5933 26262.6
 02 08 2013  02 48  -21.0209 26032.3 -03470.4 -07.5933 26262.6
 02 08 2013  02 49  -21.0208 26032.4 -03470.4 -07.5935 26262.7
 02 08 2013  02 50  -21.0209 26032.3 -03470.5 -07.5936 26262.7
 02 08 2013  02 51  -21.0207 26032.6 -03470.6 -07.5937 26262.9
 02 08 2013  02 52  -21.0207 26032.5 -03470.6 -07.5937 26262.8
 02 08 2013  02 53  -21.0206 26032.6 -03470.7 -07.5938 26262.9
 02 08 2013  02 54  -21.0206 26032.5 -03470.6 -07.5938 26262.9
 02 08 2013  02 55  -21.0207 26032.8 -03470.8 -07.5941 26263.1
 02 08 2013  02 56  -21.0207 26032.5 -03470.7 -07.5940 26262.9
 02 08 2013  02 57  -21.0206 26032.7 -03470.8 -07.5941 26263.0
 02 08 2013  02 58  -21.0208 26032.5 -03470.7 -07.5940 26262.9
 02 08 2013  02 59  -21.0208 26032.6 -03470.7 -07.5941 26262.9
 02 08 2013  03 00  -21.0208 26032.5 -03470.7 -07.5940 26262.8
 02 08 2013  03 01  -21.0208 26032.5 -03470.7 -07.5940 26262.8
 02 08 2013  03 02  -21.0206 26032.8 -03470.8 -07.5941 26263.1
 02 08 2013  03 03  -21.0209 26032.4 -03470.8 -07.5941 26262.8
 02 08 2013  03 04  -21.0205 26032.8 -03470.8 -07.5942 26263.1
 02 08 2013  03 05  -21.0207 26032.9 -03471.0 -07.5945 26263.3
 02 08 2013  03 06  -21.0206 26032.6 -03470.8 -07.5942 26262.9
 02 08 2013  03 07  -21.0206 26032.9 -03471.0 -07.5945 26263.3
 02 08 2013  03 08  -21.0206 26032.5 -03470.8 -07.5942 26262.9
 02 08 2013  03 09  -21.0205 26032.8 -03471.0 -07.5944 26263.2
 02 08 2013  03 10  -21.0208 26032.5 -03470.8 -07.5943 26262.9
 02 08 2013  03 11  -21.0209 26032.7 -03470.9 -07.5944 26263.1
 02 08 2013  03 12  -21.0211 26032.6 -03470.9 -07.5944 26263.0
 02 08 2013  03 13  -21.0210 26032.9 -03471.0 -07.5946 26263.3
 02 08 2013  03 14  -21.0210 26032.9 -03471.1 -07.5946 26263.2
 02 08 2013  03 15  -21.0212 26032.8 -03471.0 -07.5945 26263.2
 02 08 2013  03 16  -21.0211 26033.2 -03471.2 -07.5949 26263.7
 02 08 2013  03 17  -21.0213 26032.9 -03471.1 -07.5948 26263.3
 02 08 2013  03 18  -21.0212 26033.2 -03471.2 -07.5949 26263.6
 02 08 2013  03 19  -21.0214 26033.4 -03471.3 -07.5951 26263.8
 02 08 2013  03 20  -21.0214 26033.4 -03471.3 -07.5951 26263.9
 02 08 2013  03 21  -21.0216 26033.6 -03471.4 -07.5952 26264.0
 02 08 2013  03 22  -21.0217 26033.7 -03471.5 -07.5953 26264.1
 02 08 2013  03 23  -21.0218 26033.6 -03471.4 -07.5953 26264.0
 02 08 2013  03 24  -21.0216 26033.7 -03471.4 -07.5952 26264.1
 02 08 2013  03 25  -21.0217 26033.8 -03471.5 -07.5953 26264.2
 02 08 2013  03 26  -21.0216 26033.9 -03471.5 -07.5953 26264.3
 02 08 2013  03 27  -21.0216 26034.1 -03471.6 -07.5955 26264.6
 02 08 2013  03 28  -21.0216 26034.0 -03471.6 -07.5954 26264.4
 02 08 2013  03 29  -21.0216 26034.0 -03471.5 -07.5954 26264.5
 02 08 2013  03 30  -21.0218 26034.0 -03471.6 -07.5954 26264.5
 02 08 2013  03 31  -21.0218 26034.0 -03471.5 -07.5953 26264.4
 02 08 2013  03 32  -21.0218 26034.0 -03471.5 -07.5954 26264.5
 02 08 2013  03 33  -21.0218 26034.1 -03471.6 -07.5954 26264.5
 02 08 2013  03 34  -21.0218 26034.1 -03471.6 -07.5954 26264.5
 02 08 2013  03 35  -21.0219 26034.0 -03471.5 -07.5952 26264.5
 02 08 2013  03 36  -21.0219 26034.0 -03471.5 -07.5952 26264.4
 02 08 2013  03 37  -21.0220 26033.9 -03471.4 -07.5951 26264.3
 02 08 2013  03 38  -21.0219 26033.8 -03471.4 -07.5951 26264.3
 02 08 2013  03 39  -21.0220 26033.8 -03471.3 -07.5950 26264.2
 02 08 2013  03 40  -21.0221 26033.7 -03471.3 -07.5949 26264.1
 02 08 2013  03 41  -21.0222 26033.7 -03471.3 -07.5949 26264.1
 02 08 2013  03 42  -21.0223 26033.6 -03471.2 -07.5948 26264.0
 02 08 2013  03 43  -21.0224 26033.6 -03471.3 -07.5949 26264.0
 02 08 2013  03 44  -21.0224 26033.6 -03471.3 -07.5949 26264.0
 02 08 2013  03 45  -21.0224 26033.4 -03471.2 -07.5948 26263.8
 02 08 2013  03 46  -21.0223 26033.6 -03471.2 -07.5948 26264.0
 02 08 2013  03 47  -21.0224 26033.5 -03471.2 -07.5948 26263.9
 02 08 2013  03 48  -21.0224 26033.4 -03471.2 -07.5947 26263.8
 02 08 2013  03 49  -21.0224 26033.3 -03471.1 -07.5947 26263.7
 02 08 2013  03 50  -21.0224 26033.4 -03471.2 -07.5947 26263.8
 02 08 2013  03 51  -21.0224 26033.4 -03471.2 -07.5948 26263.8
 02 08 2013  03 52  -21.0226 26033.3 -03471.1 -07.5947 26263.7
 02 08 2013  03 53  -21.0226 26033.2 -03471.1 -07.5947 26263.5
 02 08 2013  03 54  -21.0226 26033.1 -03471.1 -07.5947 26263.5
 02 08 2013  03 55  -21.0226 26032.9 -03471.0 -07.5945 26263.3
 02 08 2013  03 56  -21.0226 26033.0 -03471.0 -07.5945 26263.3
 02 08 2013  03 57  -21.0225 26032.9 -03471.0 -07.5944 26263.3
 02 08 2013  03 58  -21.0223 26033.1 -03471.1 -07.5946 26263.5
 02 08 2013  03 59  -21.0225 26032.9 -03471.0 -07.5946 26263.2
 02 08 2013  04 00  -21.0223 26033.0 -03471.0 -07.5946 26263.4
 02 08 2013  04 01  -21.0224 26032.7 -03471.0 -07.5945 26263.1
 02 08 2013  04 02  -21.0223 26033.0 -03471.1 -07.5947 26263.4
 02 08 2013  04 03  -21.0224 26032.9 -03471.1 -07.5947 26263.3
 02 08 2013  04 04  -21.0225 26032.7 -03471.0 -07.5945 26263.1
 02 08 2013  04 05  -21.0225 26032.9 -03471.1 -07.5947 26263.3
 02 08 2013  04 06  -21.0225 26033.0 -03471.1 -07.5947 26263.4
 02 08 2013  04 07  -21.0224 26033.2 -03471.2 -07.5948 26263.6
 02 08 2013  04 08  -21.0226 26032.9 -03471.1 -07.5948 26263.3
 02 08 2013  04 09  -21.0226 26033.0 -03471.1 -07.5947 26263.4
 02 08 2013  04 10  -21.0227 26033.0 -03471.1 -07.5947 26263.3
 02 08 2013  04 11  -21.0227 26033.0 -03471.1 -07.5948 26263.4
 02 08 2013  04 12  -21.0227 26032.8 -03471.1 -07.5947 26263.2
 02 08 2013  04 13  -21.0226 26032.8 -03471.0 -07.5946 26263.2
 02 08 2013  04 14  -21.0225 26032.9 -03471.1 -07.5946 26263.3
 02 08 2013  04 15  -21.0226 26032.8 -03471.0 -07.5946 26263.2
 02 08 2013  04 16  -21.0225 26033.1 -03471.1 -07.5948 26263.5
 02 08 2013  04 17  -21.0227 26032.9 -03471.1 -07.5947 26263.3
 02 08 2013  04 18  -21.0228 26033.1 -03471.2 -07.5948 26263.5
 02 08 2013  04 19  -21.0230 26033.1 -03471.2 -07.5950 26263.6
 02 08 2013  04 20  -21.0232 26033.1 -03471.2 -07.5949 26263.5
 02 08 2013  04 21  -21.0231 26033.2 -03471.2 -07.5949 26263.6
 02 08 2013  04 22  -21.0231 26033.2 -03471.2 -07.5949 26263.6
 02 08 2013  04 23  -21.0231 26033.3 -03471.2 -07.5949 26263.7
 02 08 2013  04 24  -21.0231 26033.3 -03471.2 -07.5949 26263.7
 02 08 2013  04 25  -21.0231 26033.4 -03471.2 -07.5949 26263.8
 02 08 2013  04 26  -21.0232 26033.5 -03471.3 -07.5951 26263.9
 02 08 2013  04 27  -21.0233 26033.7 -03471.4 -07.5952 26264.1
 02 08 2013  04 28  -21.0235 26033.8 -03471.5 -07.5952 26264.2
 02 08 2013  04 29  -21.0235 26034.0 -03471.5 -07.5954 26264.4
 02 08 2013  04 30  -21.0237 26034.0 -03471.6 -07.5954 26264.4
 02 08 2013  04 31  -21.0236 26034.4 -03471.7 -07.5956 26264.9
 02 08 2013  04 32  -21.0238 26034.3 -03471.7 -07.5956 26264.8
 02 08 2013  04 33  -21.0237 26034.5 -03471.7 -07.5956 26264.9
 02 08 2013  04 34  -21.0238 26034.7 -03471.8 -07.5957 26265.2
 02 08 2013  04 35  -21.0238 26035.2 -03472.0 -07.5960 26265.7
 02 08 2013  04 36  -21.0241 26035.4 -03472.1 -07.5962 26265.9
 02 08 2013  04 37  -21.0243 26035.5 -03472.2 -07.5962 26266.0
 02 08 2013  04 38  -21.0245 26035.8 -03472.2 -07.5963 26266.3
 02 08 2013  04 39  -21.0247 26035.9 -03472.2 -07.5963 26266.4
 02 08 2013  04 40  -21.0250 26036.0 -03472.2 -07.5962 26266.5
 02 08 2013  04 41  -21.0251 26036.1 -03472.2 -07.5962 26266.6
 02 08 2013  04 42  -21.0251 26036.2 -03472.2 -07.5963 26266.7
 02 08 2013  04 43  -21.0253 26036.2 -03472.1 -07.5961 26266.7
 02 08 2013  04 44  -21.0254 26036.2 -03472.1 -07.5959 26266.7
 02 08 2013  04 45  -21.0253 26036.2 -03472.0 -07.5958 26266.7
 02 08 2013  04 46  -21.0252 26036.4 -03472.1 -07.5958 26266.8
 02 08 2013  04 47  -21.0252 26036.4 -03472.1 -07.5958 26266.9
 02 08 2013  04 48  -21.0251 26036.6 -03472.1 -07.5958 26267.1
 02 08 2013  04 49  -21.0249 26036.6 -03472.1 -07.5957 26267.1
 02 08 2013  04 50  -21.0248 26036.7 -03472.1 -07.5957 26267.1
 02 08 2013  04 51  -21.0246 26036.7 -03472.1 -07.5957 26267.2
 02 08 2013  04 52  -21.0246 26036.8 -03472.1 -07.5957 26267.3
 02 08 2013  04 53  -21.0245 26036.9 -03472.1 -07.5957 26267.4
 02 08 2013  04 54  -21.0244 26037.1 -03472.1 -07.5958 26267.6
 02 08 2013  04 55  -21.0245 26037.0 -03472.1 -07.5957 26267.5
 02 08 2013  04 56  -21.0245 26037.1 -03472.1 -07.5957 26267.6
 02 08 2013  04 57  -21.0245 26037.1 -03472.1 -07.5956 26267.6
 02 08 2013  04 58  -21.0246 26037.0 -03472.0 -07.5955 26267.4
 02 08 2013  04 59  -21.0246 26036.9 -03471.9 -07.5953 26267.3
 02 08 2013  05 00  -21.0245 26036.8 -03471.8 -07.5952 26267.2
 02 08 2013  05 01  -21.0245 26036.7 -03471.8 -07.5951 26267.2
 02 08 2013  05 02  -21.0245 26036.7 -03471.7 -07.5950 26267.1
 02 08 2013  05 03  -21.0246 26036.6 -03471.7 -07.5949 26267.0
 02 08 2013  05 04  -21.0246 26036.4 -03471.6 -07.5948 26266.9
 02 08 2013  05 05  -21.0245 26036.4 -03471.5 -07.5947 26266.8
 02 08 2013  05 06  -21.0245 26036.3 -03471.5 -07.5946 26266.7
 02 08 2013  05 07  -21.0246 26036.2 -03471.4 -07.5945 26266.6
 02 08 2013  05 08  -21.0247 26036.3 -03471.4 -07.5945 26266.7
 02 08 2013  05 09  -21.0249 26036.3 -03471.5 -07.5946 26266.7
 02 08 2013  05 10  -21.0251 26036.3 -03471.5 -07.5947 26266.7
 02 08 2013  05 11  -21.0250 26036.4 -03471.5 -07.5946 26266.8
 02 08 2013  05 12  -21.0249 26036.3 -03471.5 -07.5946 26266.8
 02 08 2013  05 13  -21.0248 26036.3 -03471.4 -07.5944 26266.7
 02 08 2013  05 14  -21.0247 26036.2 -03471.4 -07.5944 26266.6
 02 08 2013  05 15  -21.0246 26036.2 -03471.3 -07.5943 26266.6
 02 08 2013  05 16  -21.0246 26036.2 -03471.3 -07.5942 26266.5
 02 08 2013  05 17  -21.0245 26036.2 -03471.3 -07.5943 26266.6
 02 08 2013  05 18  -21.0244 26036.3 -03471.4 -07.5943 26266.7
 02 08 2013  05 19  -21.0244 26036.3 -03471.4 -07.5944 26266.7
 02 08 2013  05 20  -21.0244 26036.4 -03471.4 -07.5944 26266.8
 02 08 2013  05 21  -21.0244 26036.3 -03471.4 -07.5943 26266.7
 02 08 2013  05 22  -21.0244 26036.3 -03471.4 -07.5943 26266.7
 02 08 2013  05 23  -21.0243 26036.4 -03471.3 -07.5943 26266.8
 02 08 2013  05 24  -21.0242 26036.5 -03471.4 -07.5943 26266.9
 02 08 2013  05 25  -21.0241 26036.6 -03471.4 -07.5943 26267.0
 02 08 2013  05 26  -21.0240 26036.5 -03471.4 -07.5943 26266.9
 02 08 2013  05 27  -21.0239 26036.5 -03471.3 -07.5942 26266.9
 02 08 2013  05 28  -21.0237 26036.4 -03471.3 -07.5941 26266.8
 02 08 2013  05 29  -21.0236 26036.3 -03471.2 -07.5940 26266.7
 02 08 2013  05 30  -21.0233 26036.2 -03471.2 -07.5939 26266.6
 02 08 2013  05 31  -21.0231 26036.1 -03471.1 -07.5938 26266.5
 02 08 2013  05 32  -21.0230 26036.1 -03471.1 -07.5938 26266.5
 02 08 2013  05 33  -21.0229 26036.0 -03471.1 -07.5937 26266.3
 02 08 2013  05 34  -21.0227 26035.9 -03471.0 -07.5937 26266.3
 02 08 2013  05 35  -21.0227 26035.9 -03471.0 -07.5936 26266.2
 02 08 2013  05 36  -21.0226 26035.8 -03471.0 -07.5937 26266.1
 02 08 2013  05 37  -21.0226 26035.6 -03470.9 -07.5936 26265.9
 02 08 2013  05 38  -21.0225 26035.4 -03470.8 -07.5934 26265.8
 02 08 2013  05 39  -21.0225 26035.3 -03470.8 -07.5933 26265.6
 02 08 2013  05 40  -21.0225 26035.3 -03470.8 -07.5933 26265.6
 02 08 2013  05 41  -21.0224 26035.3 -03470.8 -07.5934 26265.6
 02 08 2013  05 42  -21.0226 26035.3 -03470.8 -07.5934 26265.7
 02 08 2013  05 43  -21.0226 26035.3 -03470.8 -07.5934 26265.6
 02 08 2013  05 44  -21.0225 26035.2 -03470.8 -07.5934 26265.6
 02 08 2013  05 45  -21.0225 26035.4 -03470.9 -07.5936 26265.8
 02 08 2013  05 46  -21.0225 26035.4 -03470.9 -07.5936 26265.8
 02 08 2013  05 47  -21.0225 26035.5 -03470.9 -07.5936 26265.8
 02 08 2013  05 48  -21.0225 26035.4 -03470.9 -07.5936 26265.7
 02 08 2013  05 49  -21.0225 26035.3 -03470.9 -07.5935 26265.7
 02 08 2013  05 50  -21.0225 26035.4 -03470.9 -07.5936 26265.7
 02 08 2013  05 51  -21.0225 26035.5 -03470.9 -07.5937 26265.8
 02 08 2013  05 52  -21.0225 26035.3 -03470.9 -07.5936 26265.7
 02 08 2013  05 53  -21.0224 26035.3 -03470.9 -07.5936 26265.6
 02 08 2013  05 54  -21.0223 26035.1 -03470.8 -07.5934 26265.5
 02 08 2013  05 55  -21.0221 26035.3 -03470.8 -07.5935 26265.6
 02 08 2013  05 56  -21.0219 26035.3 -03470.9 -07.5936 26265.6
 02 08 2013  05 57  -21.0217 26035.3 -03470.9 -07.5936 26265.6
 02 08 2013  05 58  -21.0215 26035.2 -03470.9 -07.5936 26265.5
 02 08 2013  05 59  -21.0214 26035.1 -03470.8 -07.5934 26265.4
 02 08 2013  06 00  -21.0214 26035.0 -03470.8 -07.5934 26265.3
 02 08 2013  06 01  -21.0214 26034.9 -03470.8 -07.5934 26265.2
 02 08 2013  06 02  -21.0214 26034.9 -03470.8 -07.5935 26265.2
 02 08 2013  06 03  -21.0214 26034.8 -03470.8 -07.5935 26265.2
 02 08 2013  06 04  -21.0214 26034.8 -03470.8 -07.5936 26265.2
 02 08 2013  06 05  -21.0213 26034.9 -03470.9 -07.5936 26265.2
 02 08 2013  06 06  -21.0211 26034.9 -03470.9 -07.5936 26265.2
 02 08 2013  06 07  -21.0209 26034.9 -03470.9 -07.5937 26265.2
 02 08 2013  06 08  -21.0208 26034.9 -03470.9 -07.5937 26265.2
 02 08 2013  06 09  -21.0207 26034.9 -03470.9 -07.5938 26265.2
 02 08 2013  06 10  -21.0205 26034.9 -03471.0 -07.5938 26265.3
 02 08 2013  06 11  -21.0204 26034.9 -03471.0 -07.5938 26265.3
 02 08 2013  06 12  -21.0204 26034.9 -03471.0 -07.5939 26265.2
 02 08 2013  06 13  -21.0203 26034.9 -03471.0 -07.5939 26265.3
 02 08 2013  06 14  -21.0203 26034.8 -03471.0 -07.5940 26265.2
 02 08 2013  06 15  -21.0203 26034.8 -03471.0 -07.5939 26265.1
 02 08 2013  06 16  -21.0202 26034.8 -03471.0 -07.5939 26265.1
 02 08 2013  06 17  -21.0200 26034.7 -03471.0 -07.5939 26265.1
 02 08 2013  06 18  -21.0199 26034.7 -03471.0 -07.5939 26265.0
 02 08 2013  06 19  -21.0197 26034.8 -03471.0 -07.5940 26265.1
 02 08 2013  06 20  -21.0196 26034.8 -03471.0 -07.5940 26265.1
 02 08 2013  06 21  -21.0194 26034.8 -03471.1 -07.5941 26265.2
 02 08 2013  06 22  -21.0192 26034.8 -03471.1 -07.5942 26265.2
 02 08 2013  06 23  -21.0191 26034.9 -03471.1 -07.5942 26265.2
 02 08 2013  06 24  -21.0189 26034.9 -03471.1 -07.5942 26265.3
 02 08 2013  06 25  -21.0189 26034.8 -03471.2 -07.5943 26265.2
 02 08 2013  06 26  -21.0188 26034.8 -03471.1 -07.5943 26265.2
 02 08 2013  06 27  -21.0188 26034.8 -03471.2 -07.5943 26265.2
 02 08 2013  06 28  -21.0189 26034.8 -03471.2 -07.5943 26265.2
 02 08 2013  06 29  -21.0190 26034.8 -03471.2 -07.5944 26265.2
 02 08 2013  06 30  -21.0190 26034.8 -03471.2 -07.5944 26265.2
 02 08 2013  06 31  -21.0190 26034.8 -03471.2 -07.5944 26265.2
 02 08 2013  06 32  -21.0190 26034.8 -03471.2 -07.5944 26265.2
 02 08 2013  06 33  -21.0189 26034.7 -03471.1 -07.5943 26265.1
 02 08 2013  06 34  -21.0187 26034.7 -03471.1 -07.5943 26265.1
 02 08 2013  06 35  -21.0185 26034.7 -03471.1 -07.5943 26265.1
 02 08 2013  06 36  -21.0183 26034.7 -03471.2 -07.5943 26265.1
 02 08 2013  06 37  -21.0182 26034.8 -03471.2 -07.5944 26265.2
 02 08 2013  06 38  -21.0182 26034.7 -03471.2 -07.5944 26265.1
 02 08 2013  06 39  -21.0182 26034.7 -03471.2 -07.5944 26265.0
 02 08 2013  06 40  -21.0181 26034.6 -03471.1 -07.5943 26264.9
 02 08 2013  06 41  -21.0180 26034.5 -03471.1 -07.5943 26264.9
 02 08 2013  06 42  -21.0179 26034.5 -03471.1 -07.5944 26264.9
 02 08 2013  06 43  -21.0177 26034.6 -03471.2 -07.5944 26264.9
 02 08 2013  06 44  -21.0176 26034.5 -03471.1 -07.5943 26264.9
 02 08 2013  06 45  -21.0176 26034.5 -03471.2 -07.5944 26264.9
 02 08 2013  06 46  -21.0176 26034.5 -03471.2 -07.5944 26264.8
 02 08 2013  06 47  -21.0176 26034.3 -03471.1 -07.5944 26264.7
 02 08 2013  06 48  -21.0175 26034.3 -03471.1 -07.5943 26264.6
 02 08 2013  06 49  -21.0175 26034.3 -03471.1 -07.5943 26264.6
 02 08 2013  06 50  -21.0175 26034.2 -03471.1 -07.5943 26264.5
 02 08 2013  06 51  -21.0174 26034.1 -03471.1 -07.5944 26264.5
 02 08 2013  06 52  -21.0174 26034.1 -03471.1 -07.5944 26264.5
 02 08 2013  06 53  -21.0173 26034.1 -03471.1 -07.5944 26264.4
 02 08 2013  06 54  -21.0172 26034.1 -03471.1 -07.5945 26264.4
 02 08 2013  06 55  -21.0171 26034.0 -03471.1 -07.5945 26264.4
 02 08 2013  06 56  -21.0172 26034.1 -03471.2 -07.5945 26264.4
 02 08 2013  06 57  -21.0173 26034.1 -03471.2 -07.5946 26264.5
 02 08 2013  06 58  -21.0175 26034.1 -03471.3 -07.5947 26264.5
 02 08 2013  06 59  -21.0175 26034.1 -03471.3 -07.5947 26264.5
 02 08 2013  07 00  -21.0175 26034.2 -03471.3 -07.5948 26264.6
 02 08 2013  07 01  -21.0173 26034.1 -03471.3 -07.5948 26264.5
 02 08 2013  07 02  -21.0172 26034.1 -03471.3 -07.5948 26264.5
 02 08 2013  07 03  -21.0169 26034.1 -03471.3 -07.5947 26264.5
 02 08 2013  07 04  -21.0168 26034.1 -03471.3 -07.5948 26264.5
 02 08 2013  07 05  -21.0165 26034.1 -03471.3 -07.5948 26264.5
 02 08 2013  07 06  -21.0164 26034.1 -03471.3 -07.5949 26264.5
 02 08 2013  07 07  -21.0161 26034.2 -03471.4 -07.5950 26264.6
 02 08 2013  07 08  -21.0159 26034.3 -03471.5 -07.5952 26264.8
 02 08 2013  07 09  -21.0154 26034.5 -03471.6 -07.5953 26264.9
 02 08 2013  07 10  -21.0153 26034.5 -03471.7 -07.5955 26265.0
 02 08 2013  07 11  -21.0151 26034.6 -03471.7 -07.5955 26265.0
 02 08 2013  07 12  -21.0150 26034.6 -03471.7 -07.5956 26265.0
 02 08 2013  07 13  -21.0150 26034.5 -03471.7 -07.5956 26264.9
 02 08 2013  07 14  -21.0150 26034.3 -03471.7 -07.5956 26264.8
 02 08 2013  07 15  -21.0149 26034.2 -03471.6 -07.5955 26264.7
 02 08 2013  07 16  -21.0148 26034.2 -03471.6 -07.5954 26264.6
 02 08 2013  07 17  -21.0146 26034.1 -03471.6 -07.5954 26264.5
 02 08 2013  07 18  -21.0145 26034.0 -03471.6 -07.5954 26264.4
 02 08 2013  07 19  -21.0145 26033.9 -03471.6 -07.5954 26264.4
 02 08 2013  07 20  -21.0145 26033.9 -03471.6 -07.5954 26264.3
 02 08 2013  07 21  -21.0144 26033.8 -03471.6 -07.5955 26264.2
 02 08 2013  07 22  -21.0144 26033.8 -03471.6 -07.5955 26264.2
 02 08 2013  07 23  -21.0142 26033.7 -03471.6 -07.5955 26264.1
 02 08 2013  07 24  -21.0142 26033.6 -03471.6 -07.5956 26264.1
 02 08 2013  07 25  -21.0140 26033.6 -03471.6 -07.5956 26264.1
 02 08 2013  07 26  -21.0140 26033.6 -03471.6 -07.5957 26264.1
 02 08 2013  07 27  -21.0140 26033.6 -03471.6 -07.5957 26264.0
 02 08 2013  07 28  -21.0140 26033.6 -03471.7 -07.5958 26264.0
 02 08 2013  07 29  -21.0140 26033.5 -03471.7 -07.5958 26264.0
 02 08 2013  07 30  -21.0140 26033.5 -03471.7 -07.5958 26264.0
 02 08 2013  07 31  -21.0139 26033.5 -03471.8 -07.5960 26264.0
 02 08 2013  07 32  -21.0139 26033.6 -03471.8 -07.5960 26264.1
 02 08 2013  07 33  -21.0140 26033.6 -03471.8 -07.5961 26264.1
 02 08 2013  07 34  -21.0141 26033.8 -03471.9 -07.5963 26264.2
 02 08 2013  07 35  -21.0142 26033.9 -03472.0 -07.5964 26264.4
 02 08 2013  07 36  -21.0143 26034.0 -03472.1 -07.5965 26264.5
 02 08 2013  07 37  -21.0144 26034.1 -03472.1 -07.5965 26264.6
 02 08 2013  07 38  -21.0146 26034.1 -03472.1 -07.5966 26264.7
 02 08 2013  07 39  -21.0147 26034.2 -03472.1 -07.5966 26264.7
 02 08 2013  07 40  -21.0149 26034.2 -03472.1 -07.5966 26264.7
 02 08 2013  07 41  -21.0149 26034.2 -03472.1 -07.5966 26264.8
 02 08 2013  07 42  -21.0148 26034.2 -03472.1 -07.5966 26264.7
 02 08 2013  07 43  -21.0148 26034.3 -03472.1 -07.5965 26264.8
 02 08 2013  07 44  -21.0147 26034.3 -03472.1 -07.5965 26264.8
 02 08 2013  07 45  -21.0147 26034.3 -03472.1 -07.5965 26264.8
 02 08 2013  07 46  -21.0146 26034.4 -03472.1 -07.5965 26264.9
 02 08 2013  07 47  -21.0145 26034.3 -03472.1 -07.5965 26264.8
 02 08 2013  07 48  -21.0143 26034.4 -03472.1 -07.5965 26264.9
 02 08 2013  07 49  -21.0142 26034.4 -03472.1 -07.5965 26264.9
 02 08 2013  07 50  -21.0140 26034.4 -03472.1 -07.5964 26264.9
 02 08 2013  07 51  -21.0137 26034.4 -03472.1 -07.5965 26264.9
 02 08 2013  07 52  -21.0135 26034.4 -03472.1 -07.5965 26264.9
 02 08 2013  07 53  -21.0134 26034.4 -03472.1 -07.5965 26264.9
 02 08 2013  07 54  -21.0133 26034.4 -03472.1 -07.5965 26264.9
 02 08 2013  07 55  -21.0131 26034.3 -03472.1 -07.5965 26264.9
 02 08 2013  07 56  -21.0129 26034.3 -03472.1 -07.5966 26264.8
 02 08 2013  07 57  -21.0128 26034.3 -03472.2 -07.5966 26264.9
 02 08 2013  07 58  -21.0126 26034.4 -03472.2 -07.5967 26264.9
 02 08 2013  07 59  -21.0124 26034.4 -03472.2 -07.5967 26264.9
 02 08 2013  08 00  -21.0121 26034.4 -03472.2 -07.5967 26264.9
 02 08 2013  08 01  -21.0119 26034.3 -03472.2 -07.5967 26264.8
 02 08 2013  08 02  -21.0118 26034.3 -03472.2 -07.5967 26264.8
 02 08 2013  08 03  -21.0116 26034.3 -03472.2 -07.5967 26264.8
 02 08 2013  08 04  -21.0115 26034.2 -03472.2 -07.5968 26264.8
 02 08 2013  08 05  -21.0114 26034.2 -03472.2 -07.5968 26264.7
 02 08 2013  08 06  -21.0113 26034.2 -03472.2 -07.5968 26264.7
 02 08 2013  08 07  -21.0112 26034.1 -03472.2 -07.5969 26264.7
 02 08 2013  08 08  -21.0110 26034.1 -03472.3 -07.5969 26264.7
 02 08 2013  08 09  -21.0109 26034.1 -03472.2 -07.5969 26264.6
 02 08 2013  08 10  -21.0108 26034.0 -03472.2 -07.5969 26264.6
 02 08 2013  08 11  -21.0108 26034.0 -03472.3 -07.5969 26264.5
 02 08 2013  08 12  -21.0107 26034.0 -03472.3 -07.5969 26264.6
 02 08 2013  08 13  -21.0107 26034.0 -03472.3 -07.5970 26264.6
 02 08 2013  08 14  -21.0106 26034.1 -03472.3 -07.5970 26264.6
 02 08 2013  08 15  -21.0105 26034.0 -03472.3 -07.5969 26264.5
 02 08 2013  08 16  -21.0104 26033.9 -03472.2 -07.5968 26264.4
 02 08 2013  08 17  -21.0102 26033.8 -03472.2 -07.5968 26264.4
 02 08 2013  08 18  -21.0101 26033.8 -03472.2 -07.5968 26264.4
 02 08 2013  08 19  -21.0100 26033.8 -03472.2 -07.5968 26264.4
 02 08 2013  08 20  -21.0097 26033.8 -03472.2 -07.5968 26264.3
 02 08 2013  08 21  -21.0095 26033.7 -03472.1 -07.5967 26264.2
 02 08 2013  08 22  -21.0092 26033.6 -03472.1 -07.5967 26264.1
 02 08 2013  08 23  -21.0089 26033.6 -03472.1 -07.5967 26264.1
 02 08 2013  08 24  -21.0086 26033.7 -03472.2 -07.5968 26264.2
 02 08 2013  08 25  -21.0084 26033.8 -03472.2 -07.5969 26264.3
 02 08 2013  08 26  -21.0081 26033.9 -03472.3 -07.5971 26264.5
 02 08 2013  08 27  -21.0079 26034.0 -03472.4 -07.5972 26264.6
 02 08 2013  08 28  -21.0074 26034.0 -03472.3 -07.5971 26264.5
 02 08 2013  08 29  -21.0071 26034.0 -03472.3 -07.5971 26264.5
 02 08 2013  08 30  -21.0068 26034.0 -03472.4 -07.5971 26264.5
 02 08 2013  08 31  -21.0065 26033.9 -03472.3 -07.5971 26264.5
 02 08 2013  08 32  -21.0062 26033.9 -03472.3 -07.5971 26264.5
 02 08 2013  08 33  -21.0057 26033.9 -03472.3 -07.5970 26264.4
 02 08 2013  08 34  -21.0053 26033.9 -03472.3 -07.5970 26264.4
 02 08 2013  08 35  -21.0048 26033.7 -03472.2 -07.5969 26264.2
 02 08 2013  08 36  -21.0046 26033.7 -03472.2 -07.5969 26264.3
 02 08 2013  08 37  -21.0044 26033.6 -03472.2 -07.5968 26264.1
 02 08 2013  08 38  -21.0041 26033.6 -03472.2 -07.5969 26264.1
 02 08 2013  08 39  -21.0040 26033.7 -03472.3 -07.5970 26264.2
 02 08 2013  08 40  -21.0036 26033.6 -03472.3 -07.5970 26264.2
 02 08 2013  08 41  -21.0032 26033.7 -03472.3 -07.5971 26264.3
 02 08 2013  08 42  -21.0027 26033.7 -03472.3 -07.5972 26264.2
 02 08 2013  08 43  -21.0023 26033.8 -03472.4 -07.5972 26264.4
 02 08 2013  08 44  -21.0017 26033.8 -03472.4 -07.5972 26264.4
 02 08 2013  08 45  -21.0012 26033.8 -03472.3 -07.5971 26264.3
 02 08 2013  08 46  -21.0006 26034.1 -03472.4 -07.5972 26264.6
 02 08 2013  08 47  -20.9999 26033.3 -03472.2 -07.5969 26263.9
 02 08 2013  08 48  -20.9996 26033.8 -03472.4 -07.5974 26264.4
 02 08 2013  08 49  -20.9992 26033.5 -03472.3 -07.5972 26264.1
 02 08 2013  08 50  -20.9987 26033.4 -03472.3 -07.5973 26263.9
 02 08 2013  08 51  -20.9985 26033.6 -03472.4 -07.5973 26264.2
 02 08 2013  08 52  -20.9982 26033.6 -03472.5 -07.5976 26264.2
 02 08 2013  08 53  -20.9981 26033.9 -03472.7 -07.5979 26264.5
 02 08 2013  08 54  -20.9977 26033.9 -03472.6 -07.5978 26264.5
 02 08 2013  08 55  -20.9970 26034.0 -03472.6 -07.5977 26264.6
 02 08 2013  08 56  -20.9965 26034.0 -03472.5 -07.5975 26264.6
 02 08 2013  08 57  -20.9962 26034.0 -03472.4 -07.5973 26264.5
 02 08 2013  08 58  -20.9955 26034.0 -03472.3 -07.5971 26264.6
 02 08 2013  08 59  -20.9948 26034.1 -03472.3 -07.5971 26264.7
 02 08 2013  09 00  -20.9942 26034.2 -03472.3 -07.5970 26264.7
 02 08 2013  09 01  -20.9934 26034.2 -03472.3 -07.5970 26264.7
 02 08 2013  09 02  -20.9925 26034.3 -03472.3 -07.5969 26264.8
 02 08 2013  09 03  -20.9917 26034.3 -03472.3 -07.5969 26264.9
 02 08 2013  09 04  -20.9908 26034.3 -03472.2 -07.5968 26264.8
 02 08 2013  09 05  -20.9900 26034.4 -03472.3 -07.5968 26264.9
 02 08 2013  09 06  -20.9889 26034.4 -03472.2 -07.5968 26264.9
 02 08 2013  09 07  -20.9878 26034.2 -03472.2 -07.5967 26264.7
 02 08 2013  09 08  -20.9869 26034.2 -03472.2 -07.5967 26264.8
 02 08 2013  09 09  -20.9863 26034.0 -03472.2 -07.5969 26264.6
 02 08 2013  09 10  -20.9857 26034.1 -03472.4 -07.5972 26264.7
 02 08 2013  09 11  -20.9851 26034.1 -03472.5 -07.5974 26264.7
 02 08 2013  09 12  -20.9844 26034.1 -03472.6 -07.5976 26264.6
 02 08 2013  09 13  -20.9838 26034.1 -03472.7 -07.5977 26264.7
 02 08 2013  09 14  -20.9831 26034.2 -03472.8 -07.5980 26264.8
 02 08 2013  09 15  -20.9825 26034.1 -03472.9 -07.5982 26264.7
 02 08 2013  09 16  -20.9820 26034.1 -03473.0 -07.5985 26264.7
 02 08 2013  09 17  -20.9814 26034.2 -03473.2 -07.5989 26264.8
 02 08 2013  09 18  -20.9811 26034.3 -03473.4 -07.5993 26265.0
 02 08 2013  09 19  -20.9809 26034.4 -03473.6 -07.5997 26265.1
 02 08 2013  09 20  -20.9805 26034.4 -03473.7 -07.6000 26265.1
 02 08 2013  09 21  -20.9800 26034.5 -03473.9 -07.6002 26265.2
 02 08 2013  09 22  -20.9793 26034.3 -03473.9 -07.6004 26265.1
 02 08 2013  09 23  -20.9786 26034.4 -03474.1 -07.6007 26265.2
 02 08 2013  09 24  -20.9783 26034.5 -03474.3 -07.6012 26265.3
 02 08 2013  09 25  -20.9780 26034.6 -03474.5 -07.6016 26265.4
 02 08 2013  09 26  -20.9777 26034.8 -03474.7 -07.6020 26265.6
 02 08 2013  09 27  -20.9772 26034.8 -03474.9 -07.6023 26265.7
 02 08 2013  09 28  -20.9767 26034.8 -03475.0 -07.6025 26265.6
 02 08 2013  09 29  -20.9758 26034.9 -03475.1 -07.6028 26265.8
 02 08 2013  09 30  -20.9751 26034.9 -03475.3 -07.6032 26265.8
 02 08 2013  09 31  -20.9746 26034.9 -03475.4 -07.6034 26265.8
 02 08 2013  09 32  -20.9741 26034.9 -03475.6 -07.6038 26265.8
 02 08 2013  09 33  -20.9737 26034.9 -03475.7 -07.6041 26265.9
 02 08 2013  09 34  -20.9730 26035.0 -03475.9 -07.6044 26266.0
 02 08 2013  09 35  -20.9728 26035.0 -03476.0 -07.6048 26266.1
 02 08 2013  09 36  -20.9725 26035.0 -03476.2 -07.6052 26266.1
 02 08 2013  09 37  -20.9720 26035.1 -03476.4 -07.6055 26266.2
 02 08 2013  09 38  -20.9716 26035.1 -03476.5 -07.6059 26266.2
 02 08 2013  09 39  -20.9714 26035.1 -03476.7 -07.6061 26266.3
 02 08 2013  09 40  -20.9713 26035.1 -03476.8 -07.6065 26266.3
 02 08 2013  09 41  -20.9712 26035.1 -03477.0 -07.6068 26266.3
 02 08 2013  09 42  -20.9710 26035.2 -03477.2 -07.6072 26266.4
 02 08 2013  09 43  -20.9709 26035.2 -03477.3 -07.6075 26266.4
 02 08 2013  09 44  -20.9710 26035.2 -03477.5 -07.6079 26266.4
 02 08 2013  09 45  -20.9709 26035.5 -03477.7 -07.6083 26266.7
 02 08 2013  09 46  -20.9705 26035.4 -03477.8 -07.6085 26266.7
 02 08 2013  09 47  -20.9704 26035.5 -03478.0 -07.6088 26266.8
 02 08 2013  09 48  -20.9701 26035.7 -03478.1 -07.6092 26267.0
 02 08 2013  09 49  -20.9699 26035.6 -03478.3 -07.6095 26267.0
 02 08 2013  09 50  -20.9697 26035.7 -03478.4 -07.6096 26267.0
 02 08 2013  09 51  -20.9696 26035.7 -03478.5 -07.6099 26267.1
 02 08 2013  09 52  -20.9694 26035.5 -03478.6 -07.6101 26266.8
 02 08 2013  09 53  -20.9693 26035.3 -03478.6 -07.6102 26266.7
 02 08 2013  09 54  -20.9695 26035.4 -03478.8 -07.6106 26266.8
 02 08 2013  09 55  -20.9695 26035.5 -03478.9 -07.6109 26266.9
 02 08 2013  09 56  -20.9693 26035.4 -03479.0 -07.6112 26266.8
 02 08 2013  09 57  -20.9691 26035.4 -03479.2 -07.6115 26266.8
 02 08 2013  09 58  -20.9691 26035.4 -03479.3 -07.6117 26266.8
 02 08 2013  09 59  -20.9690 26035.4 -03479.4 -07.6120 26266.9
 02 08 2013  10 00  -20.9690 26035.6 -03479.6 -07.6123 26267.0
 02 08 2013  10 01  -20.9693 26035.7 -03479.8 -07.6127 26267.2
 02 08 2013  10 02  -20.9691 26035.7 -03479.8 -07.6128 26267.2
 02 08 2013  10 03  -20.9692 26035.8 -03480.0 -07.6131 26267.3
 02 08 2013  10 04  -20.9689 26035.9 -03480.1 -07.6133 26267.5
 02 08 2013  10 05  -20.9689 26036.1 -03480.2 -07.6136 26267.7
 02 08 2013  10 06  -20.9689 26036.3 -03480.3 -07.6137 26267.9
 02 08 2013  10 07  -20.9687 26036.4 -03480.4 -07.6139 26268.0
 02 08 2013  10 08  -20.9690 26036.5 -03480.5 -07.6141 26268.1
 02 08 2013  10 09  -20.9696 26036.6 -03480.7 -07.6143 26268.2
 02 08 2013  10 10  -20.9696 26036.8 -03480.8 -07.6146 26268.4
 02 08 2013  10 11  -20.9695 26036.9 -03480.9 -07.6148 26268.6
 02 08 2013  10 12  -20.9697 26037.0 -03481.0 -07.6149 26268.7
 02 08 2013  10 13  -20.9699 26037.1 -03481.0 -07.6150 26268.7
 02 08 2013  10 14  -20.9701 26037.2 -03481.1 -07.6151 26268.9
 02 08 2013  10 15  -20.9706 26037.3 -03481.2 -07.6152 26269.0
 02 08 2013  10 16  -20.9713 26037.3 -03481.2 -07.6154 26269.0
 02 08 2013  10 17  -20.9722 26037.3 -03481.3 -07.6155 26269.0
 02 08 2013  10 18  -20.9729 26037.5 -03481.4 -07.6157 26269.2
 02 08 2013  10 19  -20.9733 26037.7 -03481.5 -07.6158 26269.4
 02 08 2013  10 20  -20.9738 26037.7 -03481.5 -07.6158 26269.5
 02 08 2013  10 21  -20.9743 26037.9 -03481.6 -07.6160 26269.6
 02 08 2013  10 22  -20.9747 26038.1 -03481.7 -07.6161 26269.8
 02 08 2013  10 23  -20.9750 26038.3 -03481.8 -07.6162 26270.0
 02 08 2013  10 24  -20.9749 26038.4 -03481.8 -07.6162 26270.2
 02 08 2013  10 25  -20.9748 26038.7 -03481.8 -07.6162 26270.4
 02 08 2013  10 26  -20.9750 26038.8 -03481.8 -07.6162 26270.6
 02 08 2013  10 27  -20.9754 26039.1 -03481.8 -07.6161 26270.8
 02 08 2013  10 28  -20.9761 26039.4 -03481.9 -07.6162 26271.1
 02 08 2013  10 29  -20.9764 26039.5 -03481.9 -07.6161 26271.3
 02 08 2013  10 30  -20.9766 26039.7 -03481.9 -07.6161 26271.4
 02 08 2013  10 31  -20.9769 26039.8 -03481.9 -07.6160 26271.6
 02 08 2013  10 32  -20.9769 26040.0 -03481.8 -07.6159 26271.7
 02 08 2013  10 33  -20.9770 26040.1 -03481.9 -07.6159 26271.8
 02 08 2013  10 34  -20.9773 26040.2 -03481.9 -07.6159 26272.0
 02 08 2013  10 35  -20.9778 26040.3 -03481.8 -07.6158 26272.0
 02 08 2013  10 36  -20.9785 26040.4 -03481.8 -07.6158 26272.1
 02 08 2013  10 37  -20.9792 26040.4 -03481.9 -07.6158 26272.2
 02 08 2013  10 38  -20.9799 26040.4 -03481.9 -07.6158 26272.2
 02 08 2013  10 39  -20.9802 26040.5 -03481.9 -07.6159 26272.2
 02 08 2013  10 40  -20.9803 26040.6 -03481.9 -07.6159 26272.4
 02 08 2013  10 41  -20.9805 26040.8 -03481.9 -07.6158 26272.5
 02 08 2013  10 42  -20.9807 26040.9 -03481.9 -07.6158 26272.6
 02 08 2013  10 43  -20.9810 26041.1 -03482.0 -07.6159 26272.8
 02 08 2013  10 44  -20.9813 26041.3 -03482.1 -07.6161 26273.0
 02 08 2013  10 45  -20.9814 26041.6 -03482.2 -07.6162 26273.4
 02 08 2013  10 46  -20.9814 26042.0 -03482.3 -07.6163 26273.8
 02 08 2013  10 47  -20.9817 26042.2 -03482.3 -07.6163 26274.0
 02 08 2013  10 48  -20.9822 26042.4 -03482.3 -07.6163 26274.2
 02 08 2013  10 49  -20.9826 26042.6 -03482.3 -07.6162 26274.4
 02 08 2013  10 50  -20.9831 26042.6 -03482.3 -07.6162 26274.4
 02 08 2013  10 51  -20.9836 26042.6 -03482.3 -07.6160 26274.4
 02 08 2013  10 52  -20.9841 26042.6 -03482.3 -07.6161 26274.4
 02 08 2013  10 53  -20.9848 26042.7 -03482.3 -07.6161 26274.5
 02 08 2013  10 54  -20.9854 26042.9 -03482.3 -07.6161 26274.6
 02 08 2013  10 55  -20.9862 26043.1 -03482.4 -07.6162 26274.9
 02 08 2013  10 56  -20.9869 26043.1 -03482.4 -07.6162 26274.9
 02 08 2013  10 57  -20.9876 26043.2 -03482.4 -07.6161 26275.0
 02 08 2013  10 58  -20.9881 26043.5 -03482.5 -07.6162 26275.3
 02 08 2013  10 59  -20.9885 26043.7 -03482.5 -07.6162 26275.5
 02 08 2013  11 00  -20.9891 26043.8 -03482.4 -07.6160 26275.6
 02 08 2013  11 01  -20.9897 26044.0 -03482.4 -07.6159 26275.7
 02 08 2013  11 02  -20.9904 26044.1 -03482.4 -07.6159 26275.9
 02 08 2013  11 03  -20.9911 26044.3 -03482.4 -07.6159 26276.1
 02 08 2013  11 04  -20.9918 26044.5 -03482.4 -07.6158 26276.3
 02 08 2013  11 05  -20.9924 26044.7 -03482.4 -07.6157 26276.4
 02 08 2013  11 06  -20.9930 26044.7 -03482.3 -07.6155 26276.5
 02 08 2013  11 07  -20.9935 26044.9 -03482.3 -07.6154 26276.6
 02 08 2013  11 08  -20.9941 26044.9 -03482.2 -07.6153 26276.7
 02 08 2013  11 09  -20.9944 26045.1 -03482.2 -07.6152 26276.9
 02 08 2013  11 10  -20.9948 26045.3 -03482.2 -07.6152 26277.1
 02 08 2013  11 11  -20.9951 26045.6 -03482.2 -07.6151 26277.3
 02 08 2013  11 12  -20.9955 26045.8 -03482.2 -07.6151 26277.5
 02 08 2013  11 13  -20.9963 26046.0 -03482.2 -07.6150 26277.7
 02 08 2013  11 14  -20.9970 26046.4 -03482.3 -07.6150 26278.1
 02 08 2013  11 15  -20.9976 26046.7 -03482.3 -07.6149 26278.5
 02 08 2013  11 16  -20.9981 26047.0 -03482.1 -07.6145 26278.7
 02 08 2013  11 17  -20.9988 26046.9 -03481.9 -07.6140 26278.6
 02 08 2013  11 18  -20.9999 26046.8 -03481.7 -07.6137 26278.5
 02 08 2013  11 19  -21.0012 26046.5 -03481.5 -07.6133 26278.2
 02 08 2013  11 20  -21.0024 26046.4 -03481.4 -07.6131 26278.1
 02 08 2013  11 21  -21.0033 26046.5 -03481.3 -07.6129 26278.1
 02 08 2013  11 22  -21.0041 26046.7 -03481.3 -07.6128 26278.3
 02 08 2013  11 23  -21.0049 26047.0 -03481.3 -07.6126 26278.6
 02 08 2013  11 24  -21.0054 26047.3 -03481.2 -07.6124 26278.9
 02 08 2013  11 25  -21.0058 26047.5 -03481.1 -07.6122 26279.1
 02 08 2013  11 26  -21.0062 26047.7 -03481.0 -07.6119 26279.3
 02 08 2013  11 27  -21.0067 26047.9 -03480.9 -07.6116 26279.5
 02 08 2013  11 28  -21.0074 26048.2 -03480.9 -07.6115 26279.7
 02 08 2013  11 29  -21.0080 26048.3 -03480.7 -07.6111 26279.8
 02 08 2013  11 30  -21.0087 26048.4 -03480.6 -07.6108 26279.9
 02 08 2013  11 31  -21.0090 26048.7 -03480.6 -07.6106 26280.2
 02 08 2013  11 32  -21.0091 26049.0 -03480.5 -07.6103 26280.5
 02 08 2013  11 33  -21.0094 26049.4 -03480.4 -07.6101 26280.9
 02 08 2013  11 34  -21.0096 26049.8 -03480.3 -07.6098 26281.2
 02 08 2013  11 35  -21.0097 26050.1 -03480.2 -07.6094 26281.5
 02 08 2013  11 36  -21.0098 26050.3 -03480.0 -07.6090 26281.7
 02 08 2013  11 37  -21.0099 26050.4 -03479.9 -07.6087 26281.8
 02 08 2013  11 38  -21.0101 26050.5 -03479.7 -07.6083 26281.8
 02 08 2013  11 39  -21.0104 26050.6 -03479.6 -07.6080 26281.9
 02 08 2013  11 40  -21.0110 26050.6 -03479.5 -07.6077 26282.0
 02 08 2013  11 41  -21.0116 26050.6 -03479.3 -07.6073 26281.9
 02 08 2013  11 42  -21.0120 26050.6 -03479.2 -07.6070 26281.9
 02 08 2013  11 43  -21.0126 26050.7 -03479.0 -07.6067 26282.0
 02 08 2013  11 44  -21.0131 26050.7 -03478.9 -07.6064 26281.9
 02 08 2013  11 45  -21.0135 26050.7 -03478.8 -07.6061 26282.0
 02 08 2013  11 46  -21.0140 26050.8 -03478.7 -07.6059 26282.1
 02 08 2013  11 47  -21.0143 26051.0 -03478.6 -07.6058 26282.2
 02 08 2013  11 48  -21.0146 26051.3 -03478.6 -07.6056 26282.5
 02 08 2013  11 49  -21.0147 26051.5 -03478.5 -07.6053 26282.7
 02 08 2013  11 50  -21.0149 26051.7 -03478.4 -07.6050 26282.9
 02 08 2013  11 51  -21.0152 26051.7 -03478.2 -07.6046 26282.9
 02 08 2013  11 52  -21.0153 26051.7 -03478.0 -07.6042 26282.9
 02 08 2013  11 53  -21.0153 26051.8 -03477.8 -07.6038 26282.9
 02 08 2013  11 54  -21.0155 26051.7 -03477.7 -07.6035 26282.8
 02 08 2013  11 55  -21.0159 26051.7 -03477.5 -07.6033 26282.8
 02 08 2013  11 56  -21.0161 26051.8 -03477.5 -07.6031 26282.9
 02 08 2013  11 57  -21.0163 26052.0 -03477.5 -07.6030 26283.1
 02 08 2013  11 58  -21.0163 26052.3 -03477.5 -07.6030 26283.4
 02 08 2013  11 59  -21.0163 26052.7 -03477.6 -07.6030 26283.8
 02 08 2013  12 00  -21.0162 26053.1 -03477.6 -07.6029 26284.1
 02 08 2013  12 01  -21.0162 26053.4 -03477.6 -07.6028 26284.5
 02 08 2013  12 02  -21.0163 26053.7 -03477.5 -07.6027 26284.8
 02 08 2013  12 03  -21.0166 26054.0 -03477.5 -07.6025 26285.0
 02 08 2013  12 04  -21.0168 26054.2 -03477.5 -07.6024 26285.2
 02 08 2013  12 05  -21.0170 26054.5 -03477.5 -07.6023 26285.5
 02 08 2013  12 06  -21.0172 26054.8 -03477.5 -07.6022 26285.9
 02 08 2013  12 07  -21.0174 26055.1 -03477.5 -07.6021 26286.2
 02 08 2013  12 08  -21.0177 26055.6 -03477.5 -07.6021 26286.7
 02 08 2013  12 09  -21.0180 26056.0 -03477.6 -07.6021 26287.1
 02 08 2013  12 10  -21.0183 26056.2 -03477.5 -07.6019 26287.3
 02 08 2013  12 11  -21.0207 26056.1 -03477.3 -07.6014 26287.1
 02 08 2013  12 12  -21.0229 26055.9 -03477.1 -07.6010 26286.9
 02 08 2013  12 13  -21.0233 26056.0 -03477.0 -07.6008 26287.0
 02 08 2013  12 14  -21.0237 26056.2 -03477.0 -07.6007 26287.2
 02 08 2013  12 15  -21.0240 26056.5 -03477.0 -07.6007 26287.5
 02 08 2013  12 16  -21.0242 26056.7 -03476.9 -07.6005 26287.7
 02 08 2013  12 17  -21.0240 26056.9 -03476.7 -07.6000 26287.8
 02 08 2013  12 18  -21.0241 26056.9 -03476.7 -07.5999 26287.8
 02 08 2013  12 19  -21.0242 26057.0 -03476.7 -07.5998 26287.9
 02 08 2013  12 20  -21.0243 26057.1 -03476.6 -07.5997 26288.0
 02 08 2013  12 21  -21.0242 26057.2 -03476.6 -07.5997 26288.1
 02 08 2013  12 22  -21.0242 26057.3 -03476.6 -07.5996 26288.2
 02 08 2013  12 23  -21.0244 26057.3 -03476.6 -07.5996 26288.2
 02 08 2013  12 24  -21.0246 26057.5 -03476.6 -07.5996 26288.4
 02 08 2013  12 25  -21.0251 26057.6 -03476.7 -07.5996 26288.5
 02 08 2013  12 26  -21.0229 26058.0 -03476.8 -07.5998 26288.9
 02 08 2013  12 27  -21.0220 26058.4 -03477.0 -07.6001 26289.4
 02 08 2013  12 28  -21.0224 26058.6 -03476.9 -07.5999 26289.5
 02 08 2013  12 29  -21.0228 26058.8 -03476.9 -07.5997 26289.7
 02 08 2013  12 30  -21.0233 26059.0 -03476.8 -07.5994 26289.9
 02 08 2013  12 31  -21.0238 26059.1 -03476.7 -07.5992 26290.0
 02 08 2013  12 32  -21.0241 26059.3 -03476.6 -07.5990 26290.2
 02 08 2013  12 33  -21.0245 26059.5 -03476.5 -07.5987 26290.4
 02 08 2013  12 34  -21.0250 26059.8 -03476.4 -07.5984 26290.6
 02 08 2013  12 35  -21.0253 26060.0 -03476.2 -07.5980 26290.8
 02 08 2013  12 36  -21.0255 26060.1 -03476.1 -07.5976 26291.0
 02 08 2013  12 37  -21.0256 26060.3 -03475.9 -07.5972 26291.1
 02 08 2013  12 38  -21.0258 26060.5 -03475.8 -07.5970 26291.3
 02 08 2013  12 39  -21.0261 26060.7 -03475.8 -07.5968 26291.5
 02 08 2013  12 40  -21.0262 26061.0 -03475.8 -07.5967 26291.7
 02 08 2013  12 41  -21.0264 26061.5 -03475.8 -07.5967 26292.3
 02 08 2013  12 42  -21.0267 26061.9 -03475.8 -07.5966 26292.7
 02 08 2013  12 43  -21.0269 26062.2 -03475.7 -07.5963 26293.0
 02 08 2013  12 44  -21.0273 26062.2 -03475.5 -07.5958 26292.9
 02 08 2013  12 45  -21.0276 26062.3 -03475.4 -07.5956 26293.0
 02 08 2013  12 46  -21.0279 26062.5 -03475.4 -07.5955 26293.1
 02 08 2013  12 47  -21.0281 26062.6 -03475.4 -07.5954 26293.3
 02 08 2013  12 48  -21.0284 26062.7 -03475.4 -07.5955 26293.4
 02 08 2013  12 49  -21.0287 26062.8 -03475.5 -07.5956 26293.6
 02 08 2013  12 50  -21.0293 26063.1 -03475.6 -07.5957 26293.8
 02 08 2013  12 51  -21.0299 26063.2 -03475.6 -07.5958 26293.9
 02 08 2013  12 52  -21.0305 26063.3 -03475.6 -07.5957 26294.0
 02 08 2013  12 53  -21.0309 26063.1 -03475.5 -07.5956 26293.8
 02 08 2013  12 54  -21.0314 26062.8 -03475.4 -07.5954 26293.5
 02 08 2013  12 55  -21.0320 26062.6 -03475.4 -07.5954 26293.2
 02 08 2013  12 56  -21.0327 26062.5 -03475.4 -07.5955 26293.2
 02 08 2013  12 57  -21.0334 26062.2 -03475.4 -07.5956 26292.9
 02 08 2013  12 58  -21.0342 26062.0 -03475.4 -07.5956 26292.7
 02 08 2013  12 59  -21.0351 26062.0 -03475.5 -07.5958 26292.7
 02 08 2013  13 00  -21.0360 26062.0 -03475.6 -07.5960 26292.8
 02 08 2013  13 01  -21.0368 26062.2 -03475.7 -07.5962 26293.0
 02 08 2013  13 02  -21.0375 26062.5 -03475.8 -07.5964 26293.3
 02 08 2013  13 03  -21.0384 26062.8 -03475.9 -07.5964 26293.5
 02 08 2013  13 04  -21.0391 26063.0 -03475.9 -07.5964 26293.7
 02 08 2013  13 05  -21.0399 26063.0 -03475.9 -07.5963 26293.8
 02 08 2013  13 06  -21.0406 26063.0 -03475.8 -07.5962 26293.8
 02 08 2013  13 07  -21.0414 26063.0 -03475.8 -07.5961 26293.8
 02 08 2013  13 08  -21.0422 26063.0 -03475.7 -07.5960 26293.8
 02 08 2013  13 09  -21.0431 26063.0 -03475.6 -07.5959 26293.7
 02 08 2013  13 10  -21.0439 26063.1 -03475.6 -07.5957 26293.8
 02 08 2013  13 11  -21.0447 26063.1 -03475.5 -07.5955 26293.8
 02 08 2013  13 12  -21.0453 26063.3 -03475.5 -07.5955 26294.0
 02 08 2013  13 13  -21.0461 26063.4 -03475.5 -07.5954 26294.1
 02 08 2013  13 14  -21.0469 26063.5 -03475.4 -07.5952 26294.2
 02 08 2013  13 15  -21.0476 26063.6 -03475.4 -07.5951 26294.3
 02 08 2013  13 16  -21.0481 26063.8 -03475.4 -07.5951 26294.5
 02 08 2013  13 17  -21.0486 26064.0 -03475.4 -07.5950 26294.7
 02 08 2013  13 18  -21.0491 26064.3 -03475.4 -07.5950 26295.0
 02 08 2013  13 19  -21.0498 26064.5 -03475.4 -07.5949 26295.2
 02 08 2013  13 20  -21.0503 26064.7 -03475.4 -07.5948 26295.4
 02 08 2013  13 21  -21.0508 26064.9 -03475.3 -07.5946 26295.6
 02 08 2013  13 22  -21.0514 26065.0 -03475.2 -07.5944 26295.6
 02 08 2013  13 23  -21.0521 26064.8 -03475.1 -07.5941 26295.5
 02 08 2013  13 24  -21.0528 26064.7 -03475.0 -07.5940 26295.3
 02 08 2013  13 25  -21.0537 26064.6 -03475.0 -07.5939 26295.2
 02 08 2013  13 26  -21.0545 26064.6 -03474.9 -07.5938 26295.2
 02 08 2013  13 27  -21.0552 26064.5 -03474.9 -07.5939 26295.2
 02 08 2013  13 28  -21.0557 26064.6 -03474.9 -07.5938 26295.2
 02 08 2013  13 29  -21.0564 26064.6 -03475.0 -07.5940 26295.2
 02 08 2013  13 30  -21.0570 26064.7 -03475.0 -07.5941 26295.4
 02 08 2013  13 31  -21.0576 26065.0 -03475.2 -07.5943 26295.6
 02 08 2013  13 32  -21.0582 26065.2 -03475.2 -07.5944 26295.8
 02 08 2013  13 33  -21.0588 26065.3 -03475.3 -07.5945 26296.0
 02 08 2013  13 34  -21.0593 26065.5 -03475.4 -07.5946 26296.1
 02 08 2013  13 35  -21.0598 26065.5 -03475.4 -07.5946 26296.2
 02 08 2013  13 36  -21.0603 26065.6 -03475.4 -07.5947 26296.3
 02 08 2013  13 37  -21.0609 26065.8 -03475.5 -07.5948 26296.5
 02 08 2013  13 38  -21.0616 26065.9 -03475.5 -07.5948 26296.6
 02 08 2013  13 39  -21.0623 26066.0 -03475.5 -07.5948 26296.7
 02 08 2013  13 40  -21.0631 26066.0 -03475.5 -07.5947 26296.7
 02 08 2013  13 41  -21.0636 26065.8 -03475.4 -07.5944 26296.4
 02 08 2013  13 42  -21.0642 26065.6 -03475.2 -07.5943 26296.2
 02 08 2013  13 43  -21.0645 26065.4 -03475.1 -07.5941 26296.0
 02 08 2013  13 44  -21.0649 26065.4 -03475.1 -07.5941 26296.0
 02 08 2013  13 45  -21.0650 26065.2 -03475.1 -07.5940 26295.9
 02 08 2013  13 46  -21.0653 26065.4 -03475.1 -07.5941 26296.0
 02 08 2013  13 47  -21.0656 26065.5 -03475.2 -07.5942 26296.2
 02 08 2013  13 48  -21.0660 26065.5 -03475.2 -07.5943 26296.2
 02 08 2013  13 49  -21.0663 26065.6 -03475.3 -07.5943 26296.3
 02 08 2013  13 50  -21.0667 26065.7 -03475.4 -07.5945 26296.4
 02 08 2013  13 51  -21.0670 26065.9 -03475.5 -07.5947 26296.6
 02 08 2013  13 52  -21.0674 26066.3 -03475.6 -07.5948 26296.9
 02 08 2013  13 53  -21.0676 26066.7 -03475.7 -07.5950 26297.4
 02 08 2013  13 54  -21.0677 26067.0 -03475.8 -07.5951 26297.7
 02 08 2013  13 55  -21.0679 26067.3 -03475.9 -07.5951 26298.0
 02 08 2013  13 56  -21.0682 26067.6 -03475.9 -07.5951 26298.3
 02 08 2013  13 57  -21.0684 26067.7 -03475.9 -07.5950 26298.4
 02 08 2013  13 58  -21.0687 26067.8 -03475.8 -07.5948 26298.5
 02 08 2013  13 59  -21.0690 26067.7 -03475.7 -07.5946 26298.4
 02 08 2013  14 00  -21.0694 26067.6 -03475.6 -07.5944 26298.3
 02 08 2013  14 01  -21.0699 26067.4 -03475.5 -07.5942 26298.0
 02 08 2013  14 02  -21.0705 26067.0 -03475.3 -07.5941 26297.7
 02 08 2013  14 03  -21.0712 26067.0 -03475.3 -07.5941 26297.6
 02 08 2013  14 04  -21.0721 26067.0 -03475.3 -07.5940 26297.6
 02 08 2013  14 05  -21.0728 26067.0 -03475.3 -07.5940 26297.6
 02 08 2013  14 06  -21.0736 26067.2 -03475.3 -07.5940 26297.8
 02 08 2013  14 07  -21.0741 26067.4 -03475.4 -07.5940 26298.1
 02 08 2013  14 08  -21.0746 26067.6 -03475.3 -07.5938 26298.2
 02 08 2013  14 09  -21.0750 26067.8 -03475.2 -07.5936 26298.4
 02 08 2013  14 10  -21.0753 26067.9 -03475.1 -07.5932 26298.5
 02 08 2013  14 11  -21.0756 26067.9 -03474.8 -07.5927 26298.5
 02 08 2013  14 12  -21.0758 26067.7 -03474.6 -07.5923 26298.3
 02 08 2013  14 13  -21.0759 26067.6 -03474.4 -07.5919 26298.1
 02 08 2013  14 14  -21.0761 26067.6 -03474.3 -07.5916 26298.1
 02 08 2013  14 15  -21.0764 26067.6 -03474.2 -07.5913 26298.1
 02 08 2013  14 16  -21.0766 26067.6 -03474.0 -07.5910 26298.1
 02 08 2013  14 17  -21.0768 26067.5 -03473.8 -07.5907 26298.0
 02 08 2013  14 18  -21.0768 26067.3 -03473.6 -07.5903 26297.7
 02 08 2013  14 19  -21.0768 26067.3 -03473.5 -07.5900 26297.7
 02 08 2013  14 20  -21.0771 26067.3 -03473.4 -07.5897 26297.6
 02 08 2013  14 21  -21.0772 26067.2 -03473.3 -07.5896 26297.6
 02 08 2013  14 22  -21.0773 26067.2 -03473.2 -07.5894 26297.6
 02 08 2013  14 23  -21.0775 26067.2 -03473.1 -07.5892 26297.6
 02 08 2013  14 24  -21.0777 26067.3 -03473.1 -07.5892 26297.7
 02 08 2013  14 25  -21.0779 26067.5 -03473.1 -07.5891 26297.9
 02 08 2013  14 26  -21.0780 26067.7 -03473.1 -07.5890 26298.1
 02 08 2013  14 27  -21.0782 26067.9 -03473.0 -07.5888 26298.2
 02 08 2013  14 28  -21.0785 26068.0 -03472.9 -07.5886 26298.3
 02 08 2013  14 29  -21.0787 26068.0 -03472.9 -07.5884 26298.4
 02 08 2013  14 30  -21.0789 26068.1 -03472.8 -07.5882 26298.4
 02 08 2013  14 31  -21.0791 26068.1 -03472.6 -07.5879 26298.4
 02 08 2013  14 32  -21.0794 26068.1 -03472.5 -07.5876 26298.4
 02 08 2013  14 33  -21.0797 26068.1 -03472.4 -07.5874 26298.4
 02 08 2013  14 34  -21.0801 26068.1 -03472.3 -07.5873 26298.4
 02 08 2013  14 35  -21.0805 26068.2 -03472.3 -07.5871 26298.4
 02 08 2013  14 36  -21.0810 26068.4 -03472.3 -07.5870 26298.6
 02 08 2013  14 37  -21.0816 26068.4 -03472.2 -07.5869 26298.7
 02 08 2013  14 38  -21.0823 26068.4 -03472.1 -07.5867 26298.6
 02 08 2013  14 39  -21.0826 26068.3 -03471.9 -07.5863 26298.4
 02 08 2013  14 40  -21.0828 26068.0 -03471.7 -07.5860 26298.2
 02 08 2013  14 41  -21.0833 26067.9 -03471.7 -07.5859 26298.0
 02 08 2013  14 42  -21.0838 26067.8 -03471.6 -07.5857 26297.9
 02 08 2013  14 43  -21.0842 26067.7 -03471.5 -07.5855 26297.8
 02 08 2013  14 44  -21.0848 26067.8 -03471.4 -07.5854 26297.9
 02 08 2013  14 45  -21.0855 26067.8 -03471.4 -07.5853 26297.9
 02 08 2013  14 46  -21.0863 26067.8 -03471.2 -07.5849 26297.9
 02 08 2013  14 47  -21.0869 26067.7 -03471.1 -07.5846 26297.8
 02 08 2013  14 48  -21.0877 26067.7 -03470.9 -07.5842 26297.8
 02 08 2013  14 49  -21.0884 26067.6 -03470.6 -07.5838 26297.6
 02 08 2013  14 50  -21.0890 26067.3 -03470.3 -07.5831 26297.3
 02 08 2013  14 51  -21.0894 26067.1 -03470.0 -07.5826 26297.0
 02 08 2013  14 52  -21.0898 26066.9 -03469.8 -07.5822 26296.8
 02 08 2013  14 53  -21.0901 26066.9 -03469.7 -07.5820 26296.8
 02 08 2013  14 54  -21.0907 26067.0 -03469.6 -07.5817 26296.9
 02 08 2013  14 55  -21.0912 26067.0 -03469.5 -07.5814 26296.9
 02 08 2013  14 56  -21.0916 26067.0 -03469.3 -07.5810 26296.9
 02 08 2013  14 57  -21.0921 26066.9 -03469.1 -07.5806 26296.7
 02 08 2013  14 58  -21.0925 26066.7 -03468.8 -07.5801 26296.5
 02 08 2013  14 59  -21.0927 26066.7 -03468.7 -07.5798 26296.5
 02 08 2013  15 00  -21.0930 26066.7 -03468.6 -07.5795 26296.5
 02 08 2013  15 01  -21.0932 26066.7 -03468.4 -07.5792 26296.5
 02 08 2013  15 02  -21.0936 26066.7 -03468.2 -07.5788 26296.4
 02 08 2013  15 03  -21.0938 26066.7 -03468.1 -07.5784 26296.4
 02 08 2013  15 04  -21.0940 26066.6 -03467.8 -07.5779 26296.2
 02 08 2013  15 05  -21.0940 26066.2 -03467.5 -07.5773 26295.8
 02 08 2013  15 06  -21.0942 26065.9 -03467.2 -07.5767 26295.5
 02 08 2013  15 07  -21.0942 26065.6 -03466.8 -07.5761 26295.1
 02 08 2013  15 08  -21.0940 26065.1 -03466.5 -07.5755 26294.6
 02 08 2013  15 09  -21.0937 26064.7 -03466.2 -07.5750 26294.2
 02 08 2013  15 10  -21.0934 26064.5 -03466.1 -07.5748 26294.0
 02 08 2013  15 11  -21.0933 26064.6 -03466.1 -07.5749 26294.1
 02 08 2013  15 12  -21.0935 26064.8 -03466.2 -07.5750 26294.3
 02 08 2013  15 13  -21.0937 26064.7 -03466.1 -07.5747 26294.1
 02 08 2013  15 14  -21.0937 26064.4 -03465.8 -07.5742 26293.8
 02 08 2013  15 15  -21.0934 26063.9 -03465.5 -07.5736 26293.3
 02 08 2013  15 16  -21.0930 26063.5 -03465.2 -07.5732 26292.9
 02 08 2013  15 17  -21.0928 26063.2 -03465.0 -07.5729 26292.5
 02 08 2013  15 18  -21.0927 26063.1 -03465.0 -07.5728 26292.5
 02 08 2013  15 19  -21.0927 26063.1 -03464.8 -07.5725 26292.4
 02 08 2013  15 20  -21.0924 26063.0 -03464.6 -07.5721 26292.3
 02 08 2013  15 21  -21.0920 26063.0 -03464.5 -07.5718 26292.2
 02 08 2013  15 22  -21.0916 26062.9 -03464.3 -07.5714 26292.2
 02 08 2013  15 23  -21.0913 26062.8 -03464.1 -07.5710 26292.0
 02 08 2013  15 24  -21.0908 26062.6 -03463.9 -07.5706 26291.8
 02 08 2013  15 25  -21.0905 26062.4 -03463.7 -07.5702 26291.6
 02 08 2013  15 26  -21.0902 26062.3 -03463.5 -07.5699 26291.4
 02 08 2013  15 27  -21.0899 26062.2 -03463.4 -07.5697 26291.3
 02 08 2013  15 28  -21.0896 26062.3 -03463.4 -07.5696 26291.4
 02 08 2013  15 29  -21.0895 26062.4 -03463.3 -07.5694 26291.5
 02 08 2013  15 30  -21.0890 26062.2 -03463.0 -07.5689 26291.3
 02 08 2013  15 31  -21.0885 26062.0 -03462.7 -07.5683 26291.0
 02 08 2013  15 32  -21.0878 26061.7 -03462.5 -07.5679 26290.7
 02 08 2013  15 33  -21.0877 26061.7 -03462.4 -07.5677 26290.7
 02 08 2013  15 34  -21.0875 26061.8 -03462.3 -07.5674 26290.8
 02 08 2013  15 35  -21.0867 26061.0 -03461.8 -07.5665 26289.9
 02 08 2013  15 36  -21.0862 26060.6 -03461.5 -07.5660 26289.5
 02 08 2013  15 37  -21.0857 26060.0 -03461.2 -07.5655 26288.9
 02 08 2013  15 38  -21.0853 26059.7 -03461.0 -07.5652 26288.6
 02 08 2013  15 39  -21.0848 26059.3 -03460.8 -07.5648 26288.1
 02 08 2013  15 40  -21.0839 26058.9 -03460.6 -07.5645 26287.7
 02 08 2013  15 41  -21.0832 26058.8 -03460.5 -07.5643 26287.5
 02 08 2013  15 42  -21.0824 26058.4 -03460.2 -07.5639 26287.2
 02 08 2013  15 43  -21.0819 26058.2 -03460.1 -07.5637 26286.9
 02 08 2013  15 44  -21.0812 26057.9 -03459.9 -07.5634 26286.6
 02 08 2013  15 45  -21.0806 26057.7 -03459.8 -07.5632 26286.4
 02 08 2013  15 46  -21.0799 26057.4 -03459.6 -07.5629 26286.1
 02 08 2013  15 47  -21.0793 26057.2 -03459.5 -07.5626 26285.8
 02 08 2013  15 48  -21.0785 26056.7 -03459.2 -07.5622 26285.3
 02 08 2013  15 49  -21.0774 26056.1 -03458.9 -07.5618 26284.7
 02 08 2013  15 50  -21.0764 26055.5 -03458.7 -07.5615 26284.0
 02 08 2013  15 51  -21.0753 26054.8 -03458.5 -07.5613 26283.3
 02 08 2013  15 52  -21.0742 26054.0 -03458.3 -07.5610 26282.5
 02 08 2013  15 53  -21.0729 26053.2 -03458.2 -07.5610 26281.7
 02 08 2013  15 54  -21.0718 26052.6 -03458.2 -07.5612 26281.1
 02 08 2013  15 55  -21.0706 26052.1 -03458.3 -07.5615 26280.6
 02 08 2013  15 56  -21.0696 26051.7 -03458.4 -07.5619 26280.2
 02 08 2013  15 57  -21.0685 26051.3 -03458.5 -07.5623 26279.9
 02 08 2013  15 58  -21.0673 26051.1 -03458.7 -07.5628 26279.7
 02 08 2013  15 59  -21.0663 26050.9 -03459.0 -07.5634 26279.6
 02 08 2013  16 00  -21.0654 26050.8 -03459.2 -07.5639 26279.5
 02 08 2013  16 01  -21.0646 26050.7 -03459.5 -07.5645 26279.4
 02 08 2013  16 02  -21.0638 26050.7 -03459.7 -07.5649 26279.4
 02 08 2013  16 03  -21.0628 26050.6 -03459.9 -07.5654 26279.4
 02 08 2013  16 04  -21.0620 26050.5 -03460.1 -07.5659 26279.3
 02 08 2013  16 05  -21.0613 26050.3 -03460.2 -07.5662 26279.1
 02 08 2013  16 06  -21.0603 26050.0 -03460.3 -07.5665 26278.9
 02 08 2013  16 07  -21.0594 26049.9 -03460.5 -07.5670 26278.7
 02 08 2013  16 08  -21.0584 26049.5 -03460.6 -07.5673 26278.3
 02 08 2013  16 09  -21.0575 26049.3 -03460.8 -07.5678 26278.2
 02 08 2013  16 10  -21.0567 26049.3 -03461.1 -07.5685 26278.2
 02 08 2013  16 11  -21.0560 26049.3 -03461.4 -07.5690 26278.3
 02 08 2013  16 12  -21.0553 26049.3 -03461.6 -07.5695 26278.3
 02 08 2013  16 13  -21.0548 26049.3 -03461.8 -07.5699 26278.3
 02 08 2013  16 14  -21.0540 26049.2 -03462.0 -07.5705 26278.3
 02 08 2013  16 15  -21.0533 26048.9 -03462.1 -07.5707 26278.0
 02 08 2013  16 16  -21.0525 26048.7 -03462.2 -07.5710 26277.8
 02 08 2013  16 17  -21.0519 26048.4 -03462.4 -07.5715 26277.5
 02 08 2013  16 18  -21.0512 26048.1 -03462.6 -07.5719 26277.3
 02 08 2013  16 19  -21.0506 26047.9 -03462.7 -07.5723 26277.0
 02 08 2013  16 20  -21.0500 26047.7 -03462.9 -07.5728 26276.9
 02 08 2013  16 21  -21.0492 26047.3 -03463.0 -07.5731 26276.5
 02 08 2013  16 22  -21.0485 26046.9 -03463.2 -07.5735 26276.2
 02 08 2013  16 23  -21.0478 26046.7 -03463.3 -07.5740 26275.9
 02 08 2013  16 24  -21.0472 26046.2 -03463.4 -07.5743 26275.5
 02 08 2013  16 25  -21.0463 26045.9 -03463.6 -07.5748 26275.2
 02 08 2013  16 26  -21.0460 26046.1 -03464.0 -07.5757 26275.4
 02 08 2013  16 27  -21.0457 26045.8 -03464.2 -07.5761 26275.2
 02 08 2013  16 28  -21.0453 26045.7 -03464.4 -07.5765 26275.1
 02 08 2013  16 29  -21.0451 26046.0 -03464.7 -07.5771 26275.4
 02 08 2013  16 30  -21.0450 26046.1 -03464.9 -07.5776 26275.5
 02 08 2013  16 31  -21.0449 26046.0 -03465.1 -07.5779 26275.5
 02 08 2013  16 32  -21.0447 26046.0 -03465.2 -07.5782 26275.5
 02 08 2013  16 33  -21.0444 26046.0 -03465.4 -07.5787 26275.6
 02 08 2013  16 34  -21.0441 26045.9 -03465.6 -07.5790 26275.5
 02 08 2013  16 35  -21.0441 26045.8 -03465.7 -07.5793 26275.3
 02 08 2013  16 36  -21.0438 26045.6 -03465.8 -07.5796 26275.2
 02 08 2013  16 37  -21.0436 26045.3 -03465.9 -07.5799 26274.9
 02 08 2013  16 38  -21.0434 26045.1 -03466.0 -07.5802 26274.7
 02 08 2013  16 39  -21.0435 26045.1 -03466.2 -07.5807 26274.7
 02 08 2013  16 40  -21.0438 26045.1 -03466.4 -07.5811 26274.8
 02 08 2013  16 41  -21.0439 26045.0 -03466.5 -07.5813 26274.6
 02 08 2013  16 42  -21.0441 26044.7 -03466.6 -07.5816 26274.4
 02 08 2013  16 43  -21.0442 26044.5 -03466.7 -07.5818 26274.2
 02 08 2013  16 44  -21.0443 26044.1 -03466.7 -07.5820 26273.8
 02 08 2013  16 45  -21.0444 26043.9 -03466.9 -07.5824 26273.6
 02 08 2013  16 46  -21.0450 26043.8 -03467.1 -07.5829 26273.6
 02 08 2013  16 47  -21.0458 26043.8 -03467.2 -07.5832 26273.5
 02 08 2013  16 48  -21.0463 26043.5 -03467.2 -07.5833 26273.3
 02 08 2013  16 49  -21.0465 26043.3 -03467.2 -07.5834 26273.0
 02 08 2013  16 50  -21.0470 26043.1 -03467.3 -07.5836 26272.9
 02 08 2013  16 51  -21.0473 26042.8 -03467.3 -07.5837 26272.6
 02 08 2013  16 52  -21.0475 26042.6 -03467.4 -07.5840 26272.4
 02 08 2013  16 53  -21.0479 26042.5 -03467.5 -07.5842 26272.3
 02 08 2013  16 54  -21.0484 26042.4 -03467.5 -07.5843 26272.2
 02 08 2013  16 55  -21.0488 26042.2 -03467.5 -07.5844 26272.0
 02 08 2013  16 56  -21.0490 26041.9 -03467.5 -07.5844 26271.8
 02 08 2013  16 57  -21.0493 26041.7 -03467.5 -07.5845 26271.6
 02 08 2013  16 58  -21.0496 26041.6 -03467.6 -07.5846 26271.4
 02 08 2013  16 59  -21.0498 26041.3 -03467.6 -07.5846 26271.1
 02 08 2013  17 00  -21.0499 26041.0 -03467.5 -07.5846 26270.8
 02 08 2013  17 01  -21.0499 26040.7 -03467.5 -07.5846 26270.6
 02 08 2013  17 02  -21.0501 26040.4 -03467.4 -07.5846 26270.3
 02 08 2013  17 03  -21.0501 26040.1 -03467.4 -07.5847 26270.0
 02 08 2013  17 04  -21.0502 26039.8 -03467.4 -07.5847 26269.7
 02 08 2013  17 05  -21.0501 26039.5 -03467.4 -07.5848 26269.4
 02 08 2013  17 06  -21.0500 26039.2 -03467.4 -07.5849 26269.0
 02 08 2013  17 07  -21.0499 26038.9 -03467.5 -07.5851 26268.7
 02 08 2013  17 08  -21.0500 26038.6 -03467.5 -07.5854 26268.5
 02 08 2013  17 09  -21.0500 26038.4 -03467.6 -07.5857 26268.3
 02 08 2013  17 10  -21.0501 26038.2 -03467.7 -07.5858 26268.1
 02 08 2013  17 11  -21.0502 26038.0 -03467.8 -07.5861 26267.9
 02 08 2013  17 12  -21.0502 26037.7 -03467.9 -07.5864 26267.7
 02 08 2013  17 13  -21.0501 26037.5 -03468.0 -07.5866 26267.4
 02 08 2013  17 14  -21.0501 26037.3 -03468.1 -07.5869 26267.2
 02 08 2013  17 15  -21.0500 26036.9 -03468.2 -07.5872 26266.9
 02 08 2013  17 16  -21.0501 26036.5 -03468.2 -07.5875 26266.5
 02 08 2013  17 17  -21.0503 26036.5 -03468.5 -07.5881 26266.5
 02 08 2013  17 18  -21.0508 26036.4 -03468.8 -07.5887 26266.5
 02 08 2013  17 19  -21.0513 26036.2 -03468.9 -07.5890 26266.3
 02 08 2013  17 20  -21.0516 26035.8 -03468.9 -07.5891 26265.9
 02 08 2013  17 21  -21.0519 26035.6 -03469.0 -07.5894 26265.7
 02 08 2013  17 22  -21.0525 26035.6 -03469.2 -07.5899 26265.7
 02 08 2013  17 23  -21.0531 26035.4 -03469.3 -07.5902 26265.5
 02 08 2013  17 24  -21.0536 26035.2 -03469.3 -07.5903 26265.3
 02 08 2013  17 25  -21.0543 26035.2 -03469.5 -07.5905 26265.3
 02 08 2013  17 26  -21.0549 26035.1 -03469.5 -07.5907 26265.3
 02 08 2013  17 27  -21.0554 26034.9 -03469.5 -07.5908 26265.0
 02 08 2013  17 28  -21.0561 26034.8 -03469.6 -07.5909 26265.0
 02 08 2013  17 29  -21.0565 26034.5 -03469.5 -07.5908 26264.7
 02 08 2013  17 30  -21.0568 26034.1 -03469.4 -07.5907 26264.3
 02 08 2013  17 31  -21.0572 26033.9 -03469.4 -07.5908 26264.1
 02 08 2013  17 32  -21.0578 26033.9 -03469.5 -07.5910 26264.1
 02 08 2013  17 33  -21.0583 26033.6 -03469.4 -07.5909 26263.7
 02 08 2013  17 34  -21.0586 26033.6 -03469.5 -07.5910 26263.7
 02 08 2013  17 35  -21.0588 26033.3 -03469.4 -07.5910 26263.5
 02 08 2013  17 36  -21.0591 26033.2 -03469.5 -07.5912 26263.4
 02 08 2013  17 37  -21.0593 26032.8 -03469.5 -07.5912 26263.0
 02 08 2013  17 38  -21.0597 26032.8 -03469.6 -07.5915 26263.0
 02 08 2013  17 39  -21.0599 26032.4 -03469.6 -07.5916 26262.6
 02 08 2013  17 40  -21.0602 26032.4 -03469.7 -07.5919 26262.6
 02 08 2013  17 41  -21.0609 26032.4 -03469.9 -07.5923 26262.7
 02 08 2013  17 42  -21.0613 26032.3 -03470.0 -07.5925 26262.5
 02 08 2013  17 43  -21.0615 26031.8 -03469.9 -07.5924 26262.1
 02 08 2013  17 44  -21.0619 26031.4 -03469.8 -07.5924 26261.7
 02 08 2013  17 45  -21.0619 26030.9 -03469.8 -07.5924 26261.1
 02 08 2013  17 46  -21.0621 26030.5 -03469.7 -07.5925 26260.7
 02 08 2013  17 47  -21.0623 26030.2 -03469.8 -07.5928 26260.5
 02 08 2013  17 48  -21.0627 26030.3 -03470.0 -07.5931 26260.5
 02 08 2013  17 49  -21.0629 26030.1 -03470.0 -07.5933 26260.4
 02 08 2013  17 50  -21.0631 26030.0 -03470.1 -07.5934 26260.2
 02 08 2013  17 51  -21.0631 26029.7 -03470.1 -07.5934 26260.0
 02 08 2013  17 52  -21.0631 26029.4 -03470.1 -07.5935 26259.7
 02 08 2013  17 53  -21.0632 26029.2 -03470.1 -07.5936 26259.5
 02 08 2013  17 54  -21.0633 26029.0 -03470.0 -07.5936 26259.2
 02 08 2013  17 55  -21.0634 26028.8 -03470.1 -07.5937 26259.1
 02 08 2013  17 56  -21.0635 26028.5 -03470.0 -07.5936 26258.8
 02 08 2013  17 57  -21.0636 26028.2 -03469.9 -07.5934 26258.4
 02 08 2013  17 58  -21.0634 26027.8 -03469.8 -07.5933 26258.0
 02 08 2013  17 59  -21.0633 26027.4 -03469.7 -07.5933 26257.7
 02 08 2013  18 00  -21.0632 26027.2 -03469.7 -07.5934 26257.4
 02 08 2013  18 01  -21.0631 26027.1 -03469.9 -07.5938 26257.4
 02 08 2013  18 02  -21.0630 26027.0 -03470.0 -07.5940 26257.3
 02 08 2013  18 03  -21.0628 26027.1 -03470.1 -07.5943 26257.4
 02 08 2013  18 04  -21.0626 26027.2 -03470.2 -07.5945 26257.5
 02 08 2013  18 05  -21.0624 26027.2 -03470.3 -07.5947 26257.5
 02 08 2013  18 06  -21.0622 26027.1 -03470.4 -07.5948 26257.4
 02 08 2013  18 07  -21.0618 26027.0 -03470.4 -07.5949 26257.3
 02 08 2013  18 08  -21.0619 26027.0 -03470.5 -07.5951 26257.3
 02 08 2013  18 09  -21.0615 26026.9 -03470.5 -07.5952 26257.3
 02 08 2013  18 10  -21.0610 26026.8 -03470.5 -07.5952 26257.2
 02 08 2013  18 11  -21.0614 26026.8 -03470.5 -07.5953 26257.2
 02 08 2013  18 12  -21.0611 26026.8 -03470.6 -07.5955 26257.2
 02 08 2013  18 13  -21.0610 26026.8 -03470.7 -07.5955 26257.2
 02 08 2013  18 14  -21.0610 26026.8 -03470.6 -07.5955 26257.2
 02 08 2013  18 15  -21.0609 26026.6 -03470.5 -07.5953 26257.0
 02 08 2013  18 16  -21.0607 26026.6 -03470.5 -07.5953 26257.0
 02 08 2013  18 17  -21.0605 26026.5 -03470.5 -07.5952 26256.9
 02 08 2013  18 18  -21.0605 26026.5 -03470.4 -07.5952 26256.8
 02 08 2013  18 19  -21.0602 26026.4 -03470.4 -07.5952 26256.8
 02 08 2013  18 20  -21.0601 26026.4 -03470.5 -07.5952 26256.7
 02 08 2013  18 21  -21.0599 26026.4 -03470.5 -07.5954 26256.8
 02 08 2013  18 22  -21.0597 26026.5 -03470.6 -07.5955 26256.9
 02 08 2013  18 23  -21.0597 26026.6 -03470.7 -07.5956 26257.0
 02 08 2013  18 24  -21.0597 26026.7 -03470.7 -07.5957 26257.1
 02 08 2013  18 25  -21.0597 26026.8 -03470.8 -07.5958 26257.2
 02 08 2013  18 26  -21.0598 26026.8 -03470.8 -07.5958 26257.2
 02 08 2013  18 27  -21.0598 26026.8 -03470.7 -07.5957 26257.2
 02 08 2013  18 28  -21.0599 26026.7 -03470.7 -07.5957 26257.1
 02 08 2013  18 29  -21.0600 26026.6 -03470.7 -07.5956 26257.0
 02 08 2013  18 30  -21.0601 26026.6 -03470.6 -07.5955 26257.0
 02 08 2013  18 31  -21.0604 26026.6 -03470.6 -07.5955 26257.0
 02 08 2013  18 32  -21.0605 26026.7 -03470.6 -07.5954 26257.0
 02 08 2013  18 33  -21.0605 26026.6 -03470.5 -07.5952 26257.0
 02 08 2013  18 34  -21.0606 26026.6 -03470.4 -07.5949 26256.9
 02 08 2013  18 35  -21.0606 26026.6 -03470.3 -07.5948 26257.0
 02 08 2013  18 36  -21.0607 26026.6 -03470.2 -07.5947 26256.9
 02 08 2013  18 37  -21.0606 26026.6 -03470.1 -07.5944 26257.0
 02 08 2013  18 38  -21.0604 26026.6 -03470.0 -07.5941 26256.9
 02 08 2013  18 39  -21.0603 26026.6 -03469.9 -07.5939 26256.9
 02 08 2013  18 40  -21.0602 26026.6 -03469.8 -07.5937 26256.9
 02 08 2013  18 41  -21.0602 26026.6 -03469.7 -07.5935 26256.9
 02 08 2013  18 42  -21.0603 26026.8 -03469.6 -07.5933 26257.0
 02 08 2013  18 43  -21.0602 26026.9 -03469.6 -07.5932 26257.1
 02 08 2013  18 44  -21.0603 26027.0 -03469.5 -07.5930 26257.3
 02 08 2013  18 45  -21.0601 26027.1 -03469.4 -07.5928 26257.3
 02 08 2013  18 46  -21.0600 26027.2 -03469.4 -07.5927 26257.4
 02 08 2013  18 47  -21.0600 26027.3 -03469.4 -07.5926 26257.5
 02 08 2013  18 48  -21.0600 26027.5 -03469.3 -07.5924 26257.7
 02 08 2013  18 49  -21.0600 26027.7 -03469.2 -07.5922 26257.8
 02 08 2013  18 50  -21.0606 26027.8 -03469.1 -07.5919 26258.0
 02 08 2013  18 51  -21.0612 26027.9 -03469.0 -07.5915 26258.1
 02 08 2013  18 52  -21.0612 26028.1 -03468.9 -07.5914 26258.2
 02 08 2013  18 53  -21.0612 26028.4 -03468.9 -07.5913 26258.6
 02 08 2013  18 54  -21.0613 26028.4 -03468.8 -07.5911 26258.6
 02 08 2013  18 55  -21.0613 26028.4 -03468.6 -07.5907 26258.5
 02 08 2013  18 56  -21.0615 26028.5 -03468.5 -07.5903 26258.6
 02 08 2013  18 57  -21.0613 26028.6 -03468.4 -07.5900 26258.7
 02 08 2013  18 58  -21.0610 26028.6 -03468.2 -07.5898 26258.6
 02 08 2013  18 59  -21.0607 26028.5 -03468.1 -07.5894 26258.5
 02 08 2013  19 00  -21.0607 26028.5 -03467.9 -07.5891 26258.5
 02 08 2013  19 01  -21.0609 26028.4 -03467.8 -07.5889 26258.4
 02 08 2013  19 02  -21.0610 26028.1 -03467.6 -07.5886 26258.0
 02 08 2013  19 03  -21.0606 26027.8 -03467.4 -07.5881 26257.7
 02 08 2013  19 04  -21.0604 26027.5 -03467.2 -07.5878 26257.4
 02 08 2013  19 05  -21.0604 26027.4 -03467.1 -07.5876 26257.3
 02 08 2013  19 06  -21.0603 26027.2 -03467.0 -07.5875 26257.1
 02 08 2013  19 07  -21.0606 26027.0 -03467.0 -07.5876 26256.9
 02 08 2013  19 08  -21.0612 26026.9 -03467.0 -07.5875 26256.7
 02 08 2013  19 09  -21.0604 26026.8 -03466.9 -07.5874 26256.7
 02 08 2013  19 10  -21.0585 26026.9 -03466.8 -07.5873 26256.8
 02 08 2013  19 11  -21.0575 26027.0 -03467.0 -07.5875 26256.8
 02 08 2013  19 12  -21.0576 26027.1 -03467.0 -07.5876 26257.0
 02 08 2013  19 13  -21.0575 26027.4 -03467.1 -07.5876 26257.3
 02 08 2013  19 14  -21.0574 26027.6 -03467.2 -07.5877 26257.5
 02 08 2013  19 15  -21.0573 26027.7 -03467.1 -07.5876 26257.6
 02 08 2013  19 16  -21.0574 26027.8 -03467.1 -07.5875 26257.7
 02 08 2013  19 17  -21.0573 26027.9 -03467.0 -07.5874 26257.8
 02 08 2013  19 18  -21.0574 26027.9 -03467.0 -07.5872 26257.8
 02 08 2013  19 19  -21.0575 26028.2 -03467.0 -07.5873 26258.1
 02 08 2013  19 20  -21.0574 26028.4 -03467.0 -07.5871 26258.3
 02 08 2013  19 21  -21.0575 26028.7 -03467.0 -07.5871 26258.6
 02 08 2013  19 22  -21.0576 26028.9 -03467.0 -07.5870 26258.8
 02 08 2013  19 23  -21.0576 26029.2 -03466.9 -07.5868 26259.0
 02 08 2013  19 24  -21.0576 26029.2 -03466.8 -07.5866 26259.1
 02 08 2013  19 25  -21.0573 26029.1 -03466.6 -07.5861 26259.0
 02 08 2013  19 26  -21.0571 26029.1 -03466.5 -07.5858 26258.9
 02 08 2013  19 27  -21.0568 26029.1 -03466.4 -07.5857 26258.9
 02 08 2013  19 28  -21.0565 26029.1 -03466.4 -07.5856 26258.9
 02 08 2013  19 29  -21.0562 26029.0 -03466.3 -07.5855 26258.8
 02 08 2013  19 30  -21.0559 26029.0 -03466.3 -07.5854 26258.8
 02 08 2013  19 31  -21.0556 26029.1 -03466.3 -07.5854 26258.9
 02 08 2013  19 32  -21.0554 26029.2 -03466.3 -07.5853 26259.0
 02 08 2013  19 33  -21.0552 26029.3 -03466.3 -07.5854 26259.1
 02 08 2013  19 34  -21.0550 26029.6 -03466.3 -07.5854 26259.4
 02 08 2013  19 35  -21.0549 26029.7 -03466.3 -07.5853 26259.5
 02 08 2013  19 36  -21.0546 26029.8 -03466.3 -07.5851 26259.6
 02 08 2013  19 37  -21.0543 26029.9 -03466.2 -07.5850 26259.7
 02 08 2013  19 38  -21.0539 26029.9 -03466.1 -07.5848 26259.7
 02 08 2013  19 39  -21.0535 26029.7 -03466.0 -07.5845 26259.5
 02 08 2013  19 40  -21.0531 26029.6 -03465.9 -07.5844 26259.3
 02 08 2013  19 41  -21.0527 26029.5 -03465.8 -07.5842 26259.2
 02 08 2013  19 42  -21.0524 26029.5 -03465.7 -07.5841 26259.2
 02 08 2013  19 43  -21.0519 26029.5 -03465.7 -07.5841 26259.2
 02 08 2013  19 44  -21.0515 26029.5 -03465.7 -07.5840 26259.2
 02 08 2013  19 45  -21.0509 26029.4 -03465.6 -07.5839 26259.1
 02 08 2013  19 46  -21.0504 26029.3 -03465.6 -07.5838 26259.0
 02 08 2013  19 47  -21.0499 26029.3 -03465.6 -07.5838 26259.0
 02 08 2013  19 48  -21.0496 26029.4 -03465.6 -07.5839 26259.1
 02 08 2013  19 49  -21.0492 26029.5 -03465.7 -07.5839 26259.2
 02 08 2013  19 50  -21.0488 26029.6 -03465.7 -07.5840 26259.3
 02 08 2013  19 51  -21.0483 26029.5 -03465.7 -07.5839 26259.3
 02 08 2013  19 52  -21.0481 26029.6 -03465.7 -07.5839 26259.3
 02 08 2013  19 53  -21.0477 26029.7 -03465.7 -07.5839 26259.4
 02 08 2013  19 54  -21.0474 26029.7 -03465.7 -07.5840 26259.4
 02 08 2013  19 55  -21.0470 26029.8 -03465.7 -07.5840 26259.5
 02 08 2013  19 56  -21.0465 26029.8 -03465.7 -07.5840 26259.5
 02 08 2013  19 57  -21.0460 26029.7 -03465.7 -07.5840 26259.5
 02 08 2013  19 58  -21.0457 26029.7 -03465.7 -07.5840 26259.4
 02 08 2013  19 59  -21.0452 26029.7 -03465.7 -07.5840 26259.4
 02 08 2013  20 00  -21.0448 26029.7 -03465.8 -07.5842 26259.4
 02 08 2013  20 01  -21.0444 26029.7 -03465.8 -07.5842 26259.4
 02 08 2013  20 02  -21.0440 26029.6 -03465.8 -07.5842 26259.3
 02 08 2013  20 03  -21.0435 26029.5 -03465.8 -07.5842 26259.2
 02 08 2013  20 04  -21.0431 26029.5 -03465.8 -07.5843 26259.3
 02 08 2013  20 05  -21.0428 26029.4 -03465.9 -07.5844 26259.2
 02 08 2013  20 06  -21.0424 26029.4 -03465.9 -07.5845 26259.2
 02 08 2013  20 07  -21.0420 26029.5 -03466.0 -07.5847 26259.3
 02 08 2013  20 08  -21.0418 26029.5 -03466.0 -07.5847 26259.3
 02 08 2013  20 09  -21.0414 26029.5 -03466.1 -07.5849 26259.2
 02 08 2013  20 10  -21.0412 26029.5 -03466.1 -07.5850 26259.3
 02 08 2013  20 11  -21.0409 26029.5 -03466.2 -07.5850 26259.3
 02 08 2013  20 12  -21.0407 26029.6 -03466.2 -07.5851 26259.4
 02 08 2013  20 13  -21.0404 26029.6 -03466.2 -07.5852 26259.4
 02 08 2013  20 14  -21.0401 26029.6 -03466.3 -07.5853 26259.4
 02 08 2013  20 15  -21.0399 26029.7 -03466.4 -07.5854 26259.5
 02 08 2013  20 16  -21.0397 26029.8 -03466.4 -07.5855 26259.6
 02 08 2013  20 17  -21.0395 26029.9 -03466.5 -07.5857 26259.7
 02 08 2013  20 18  -21.0393 26029.9 -03466.6 -07.5858 26259.7
 02 08 2013  20 19  -21.0390 26029.9 -03466.6 -07.5859 26259.7
 02 08 2013  20 20  -21.0387 26029.9 -03466.7 -07.5861 26259.8
 02 08 2013  20 21  -21.0385 26030.0 -03466.7 -07.5861 26259.8
 02 08 2013  20 22  -21.0384 26030.0 -03466.8 -07.5862 26259.9
 02 08 2013  20 23  -21.0380 26030.1 -03466.9 -07.5864 26259.9
 02 08 2013  20 24  -21.0380 26030.2 -03467.0 -07.5867 26260.1
 02 08 2013  20 25  -21.0379 26030.3 -03467.1 -07.5869 26260.1
 02 08 2013  20 26  -21.0379 26030.5 -03467.3 -07.5871 26260.4
 02 08 2013  20 27  -21.0379 26030.6 -03467.4 -07.5874 26260.6
 02 08 2013  20 28  -21.0380 26030.8 -03467.5 -07.5876 26260.7
 02 08 2013  20 29  -21.0381 26031.0 -03467.7 -07.5878 26260.9
 02 08 2013  20 30  -21.0382 26031.0 -03467.7 -07.5878 26261.0
 02 08 2013  20 31  -21.0383 26031.0 -03467.7 -07.5879 26261.0
 02 08 2013  20 32  -21.0382 26030.9 -03467.6 -07.5878 26260.9
 02 08 2013  20 33  -21.0381 26030.8 -03467.6 -07.5877 26260.8
 02 08 2013  20 34  -21.0379 26030.8 -03467.5 -07.5876 26260.7
 02 08 2013  20 35  -21.0377 26030.6 -03467.5 -07.5875 26260.5
 02 08 2013  20 36  -21.0375 26030.5 -03467.5 -07.5876 26260.4
 02 08 2013  20 37  -21.0374 26030.4 -03467.4 -07.5875 26260.3
 02 08 2013  20 38  -21.0374 26030.3 -03467.5 -07.5876 26260.3
 02 08 2013  20 39  -21.0374 26030.3 -03467.5 -07.5878 26260.3
 02 08 2013  20 40  -21.0375 26030.4 -03467.6 -07.5879 26260.3
 02 08 2013  20 41  -21.0376 26030.4 -03467.7 -07.5881 26260.4
 02 08 2013  20 42  -21.0377 26030.4 -03467.7 -07.5882 26260.4
 02 08 2013  20 43  -21.0378 26030.4 -03467.8 -07.5882 26260.3
 02 08 2013  20 44  -21.0380 26030.4 -03467.8 -07.5884 26260.4
 02 08 2013  20 45  -21.0381 26030.4 -03467.8 -07.5884 26260.4
 02 08 2013  20 46  -21.0382 26030.5 -03467.9 -07.5885 26260.5
 02 08 2013  20 47  -21.0384 26030.6 -03468.0 -07.5886 26260.6
 02 08 2013  20 48  -21.0386 26030.6 -03468.0 -07.5887 26260.6
 02 08 2013  20 49  -21.0388 26030.5 -03468.0 -07.5886 26260.5
 02 08 2013  20 50  -21.0391 26030.5 -03468.0 -07.5887 26260.5
 02 08 2013  20 51  -21.0391 26030.6 -03468.1 -07.5888 26260.6
 02 08 2013  20 52  -21.0392 26030.7 -03468.1 -07.5890 26260.7
 02 08 2013  20 53  -21.0393 26030.8 -03468.3 -07.5892 26260.9
 02 08 2013  20 54  -21.0394 26030.8 -03468.3 -07.5892 26260.8
 02 08 2013  20 55  -21.0394 26030.7 -03468.2 -07.5891 26260.8
 02 08 2013  20 56  -21.0395 26030.7 -03468.3 -07.5892 26260.8
 02 08 2013  20 57  -21.0395 26030.8 -03468.4 -07.5894 26260.9
 02 08 2013  20 58  -21.0396 26030.9 -03468.4 -07.5894 26260.9
 02 08 2013  20 59  -21.0396 26030.9 -03468.4 -07.5895 26260.9
 02 08 2013  21 00  -21.0398 26030.9 -03468.5 -07.5897 26261.0
 02 08 2013  21 01  -21.0399 26031.0 -03468.6 -07.5898 26261.1
 02 08 2013  21 02  -21.0399 26031.1 -03468.6 -07.5899 26261.2
 02 08 2013  21 03  -21.0400 26031.3 -03468.7 -07.5900 26261.3
 02 08 2013  21 04  -21.0399 26031.4 -03468.7 -07.5900 26261.5
 02 08 2013  21 05  -21.0399 26031.5 -03468.8 -07.5901 26261.6
 02 08 2013  21 06  -21.0399 26031.5 -03468.8 -07.5901 26261.6
 02 08 2013  21 07  -21.0399 26031.5 -03468.8 -07.5902 26261.6
 02 08 2013  21 08  -21.0400 26031.6 -03468.8 -07.5902 26261.7
 02 08 2013  21 09  -21.0399 26031.6 -03468.9 -07.5904 26261.7
 02 08 2013  21 10  -21.0398 26031.7 -03469.0 -07.5904 26261.8
 02 08 2013  21 11  -21.0397 26031.8 -03469.0 -07.5905 26261.9
 02 08 2013  21 12  -21.0396 26031.9 -03469.0 -07.5906 26262.1
 02 08 2013  21 13  -21.0394 26032.1 -03469.1 -07.5906 26262.2
 02 08 2013  21 14  -21.0391 26032.2 -03469.1 -07.5907 26262.3
 02 08 2013  21 15  -21.0389 26032.2 -03469.1 -07.5906 26262.3
 02 08 2013  21 16  -21.0388 26032.2 -03469.1 -07.5906 26262.4
 02 08 2013  21 17  -21.0389 26032.3 -03469.2 -07.5907 26262.5
 02 08 2013  21 18  -21.0389 26032.5 -03469.2 -07.5907 26262.6
 02 08 2013  21 19  -21.0390 26032.7 -03469.3 -07.5910 26262.8
 02 08 2013  21 20  -21.0391 26032.8 -03469.4 -07.5911 26263.0
 02 08 2013  21 21  -21.0391 26032.9 -03469.4 -07.5910 26263.0
 02 08 2013  21 22  -21.0390 26032.9 -03469.3 -07.5909 26263.0
 02 08 2013  21 23  -21.0390 26032.9 -03469.3 -07.5908 26263.0
 02 08 2013  21 24  -21.0390 26032.9 -03469.3 -07.5908 26263.1
 02 08 2013  21 25  -21.0389 26033.0 -03469.3 -07.5908 26263.1
 02 08 2013  21 26  -21.0387 26032.9 -03469.3 -07.5907 26263.1
 02 08 2013  21 27  -21.0385 26032.9 -03469.2 -07.5906 26263.0
 02 08 2013  21 28  -21.0383 26033.0 -03469.2 -07.5906 26263.1
 02 08 2013  21 29  -21.0380 26033.0 -03469.2 -07.5906 26263.2
 02 08 2013  21 30  -21.0379 26033.0 -03469.2 -07.5906 26263.1
 02 08 2013  21 31  -21.0378 26033.1 -03469.2 -07.5905 26263.2
 02 08 2013  21 32  -21.0377 26033.2 -03469.2 -07.5905 26263.3
 02 08 2013  21 33  -21.0376 26033.2 -03469.3 -07.5907 26263.4
 02 08 2013  21 34  -21.0376 26033.2 -03469.3 -07.5907 26263.3
 02 08 2013  21 35  -21.0376 26033.2 -03469.3 -07.5907 26263.4
 02 08 2013  21 36  -21.0377 26033.3 -03469.3 -07.5908 26263.4
 02 08 2013  21 37  -21.0378 26033.4 -03469.4 -07.5909 26263.5
 02 08 2013  21 38  -21.0378 26033.4 -03469.4 -07.5909 26263.5
 02 08 2013  21 39  -21.0379 26033.4 -03469.4 -07.5909 26263.5
 02 08 2013  21 40  -21.0379 26033.5 -03469.4 -07.5910 26263.6
 02 08 2013  21 41  -21.0378 26033.4 -03469.4 -07.5909 26263.6
 02 08 2013  21 42  -21.0378 26033.4 -03469.4 -07.5909 26263.6
 02 08 2013  21 43  -21.0378 26033.6 -03469.4 -07.5909 26263.7
 02 08 2013  21 44  -21.0377 26033.7 -03469.5 -07.5910 26263.9
 02 08 2013  21 45  -21.0374 26033.8 -03469.5 -07.5911 26264.0
 02 08 2013  21 46  -21.0371 26033.9 -03469.6 -07.5911 26264.0
 02 08 2013  21 47  -21.0368 26034.0 -03469.6 -07.5912 26264.2
 02 08 2013  21 48  -21.0365 26034.0 -03469.6 -07.5912 26264.2
 02 08 2013  21 49  -21.0363 26034.1 -03469.6 -07.5912 26264.3
 02 08 2013  21 50  -21.0361 26034.2 -03469.7 -07.5912 26264.4
 02 08 2013  21 51  -21.0360 26034.1 -03469.6 -07.5912 26264.3
 02 08 2013  21 52  -21.0360 26034.1 -03469.6 -07.5912 26264.3
 02 08 2013  21 53  -21.0359 26034.2 -03469.7 -07.5913 26264.4
 02 08 2013  21 54  -21.0359 26034.2 -03469.7 -07.5913 26264.4
 02 08 2013  21 55  -21.0356 26034.3 -03469.7 -07.5913 26264.5
 02 08 2013  21 56  -21.0353 26034.4 -03469.7 -07.5914 26264.6
 02 08 2013  21 57  -21.0351 26034.6 -03469.8 -07.5915 26264.8
 02 08 2013  21 58  -21.0349 26034.7 -03469.9 -07.5916 26264.9
 02 08 2013  21 59  -21.0347 26034.7 -03469.9 -07.5915 26264.9
 02 08 2013  22 00  -21.0346 26034.8 -03469.9 -07.5916 26265.0
 02 08 2013  22 01  -21.0345 26034.8 -03469.9 -07.5916 26265.0
 02 08 2013  22 02  -21.0344 26034.9 -03469.9 -07.5916 26265.1
 02 08 2013  22 03  -21.0343 26034.9 -03469.9 -07.5916 26265.1
 02 08 2013  22 04  -21.0344 26035.0 -03469.9 -07.5916 26265.2
 02 08 2013  22 05  -21.0344 26035.1 -03470.0 -07.5917 26265.3
 02 08 2013  22 06  -21.0344 26035.1 -03470.0 -07.5916 26265.3
 02 08 2013  22 07  -21.0344 26035.1 -03469.9 -07.5916 26265.3
 02 08 2013  22 08  -21.0345 26035.0 -03469.9 -07.5915 26265.2
 02 08 2013  22 09  -21.0345 26035.0 -03469.9 -07.5914 26265.2
 02 08 2013  22 10  -21.0346 26035.0 -03469.8 -07.5914 26265.2
 02 08 2013  22 11  -21.0345 26035.0 -03469.8 -07.5912 26265.2
 02 08 2013  22 12  -21.0345 26035.0 -03469.7 -07.5912 26265.2
 02 08 2013  22 13  -21.0345 26034.9 -03469.7 -07.5911 26265.1
 02 08 2013  22 14  -21.0344 26034.9 -03469.7 -07.5910 26265.0
 02 08 2013  22 15  -21.0344 26034.8 -03469.6 -07.5909 26264.9
 02 08 2013  22 16  -21.0344 26034.7 -03469.5 -07.5908 26264.9
 02 08 2013  22 17  -21.0342 26034.7 -03469.5 -07.5908 26264.8
 02 08 2013  22 18  -21.0341 26034.5 -03469.4 -07.5906 26264.7
 02 08 2013  22 19  -21.0341 26034.5 -03469.4 -07.5906 26264.7
 02 08 2013  22 20  -21.0340 26034.5 -03469.4 -07.5905 26264.6
 02 08 2013  22 21  -21.0339 26034.4 -03469.3 -07.5904 26264.5
 02 08 2013  22 22  -21.0338 26034.3 -03469.3 -07.5904 26264.5
 02 08 2013  22 23  -21.0337 26034.2 -03469.3 -07.5904 26264.4
 02 08 2013  22 24  -21.0336 26034.3 -03469.3 -07.5904 26264.4
 02 08 2013  22 25  -21.0334 26034.2 -03469.2 -07.5903 26264.4
 02 08 2013  22 26  -21.0332 26034.2 -03469.3 -07.5904 26264.4
 02 08 2013  22 27  -21.0330 26034.2 -03469.2 -07.5903 26264.3
 02 08 2013  22 28  -21.0328 26034.2 -03469.2 -07.5903 26264.3
 02 08 2013  22 29  -21.0326 26034.1 -03469.2 -07.5904 26264.2
 02 08 2013  22 30  -21.0325 26034.1 -03469.3 -07.5904 26264.3
 02 08 2013  22 31  -21.0323 26034.2 -03469.3 -07.5905 26264.3
 02 08 2013  22 32  -21.0321 26034.1 -03469.3 -07.5905 26264.3
 02 08 2013  22 33  -21.0319 26034.2 -03469.4 -07.5906 26264.4
 02 08 2013  22 34  -21.0316 26034.2 -03469.4 -07.5906 26264.4
 02 08 2013  22 35  -21.0314 26034.3 -03469.4 -07.5907 26264.4
 02 08 2013  22 36  -21.0312 26034.3 -03469.4 -07.5907 26264.4
 02 08 2013  22 37  -21.0311 26034.3 -03469.4 -07.5907 26264.4
 02 08 2013  22 38  -21.0310 26034.3 -03469.5 -07.5908 26264.4
 02 08 2013  22 39  -21.0308 26034.3 -03469.5 -07.5908 26264.5
 02 08 2013  22 40  -21.0306 26034.3 -03469.5 -07.5909 26264.5
 02 08 2013  22 41  -21.0306 26034.4 -03469.6 -07.5910 26264.6
 02 08 2013  22 42  -21.0305 26034.5 -03469.6 -07.5911 26264.7
 02 08 2013  22 43  -21.0304 26034.6 -03469.7 -07.5912 26264.8
 02 08 2013  22 44  -21.0301 26034.6 -03469.7 -07.5913 26264.8
 02 08 2013  22 45  -21.0298 26034.5 -03469.7 -07.5911 26264.7
 02 08 2013  22 46  -21.0297 26034.5 -03469.6 -07.5911 26264.7
 02 08 2013  22 47  -21.0294 26034.5 -03469.7 -07.5912 26264.7
 02 08 2013  22 48  -21.0291 26034.6 -03469.7 -07.5912 26264.8
 02 08 2013  22 49  -21.0288 26034.6 -03469.7 -07.5913 26264.8
 02 08 2013  22 50  -21.0286 26034.6 -03469.8 -07.5913 26264.8
 02 08 2013  22 51  -21.0285 26034.5 -03469.7 -07.5913 26264.7
 02 08 2013  22 52  -21.0287 26034.5 -03469.7 -07.5913 26264.7
 02 08 2013  22 53  -21.0286 26034.4 -03469.7 -07.5913 26264.6
 02 08 2013  22 54  -21.0287 26034.4 -03469.7 -07.5914 26264.6
 02 08 2013  22 55  -21.0286 26034.3 -03469.7 -07.5913 26264.5
 02 08 2013  22 56  -21.0286 26034.2 -03469.7 -07.5913 26264.4
 02 08 2013  22 57  -21.0286 26034.1 -03469.7 -07.5913 26264.3
 02 08 2013  22 58  -21.0287 26034.1 -03469.7 -07.5913 26264.3
 02 08 2013  22 59  -21.0287 26034.1 -03469.6 -07.5913 26264.2
 02 08 2013  23 00  -21.0286 26034.0 -03469.6 -07.5912 26264.2
 02 08 2013  23 01  -21.0285 26033.9 -03469.6 -07.5912 26264.0
 02 08 2013  23 02  -21.0285 26033.8 -03469.6 -07.5912 26264.0
 02 08 2013  23 03  -21.0286 26033.8 -03469.6 -07.5912 26264.0
 02 08 2013  23 04  -21.0285 26033.8 -03469.6 -07.5912 26264.0
 02 08 2013  23 05  -21.0284 26033.8 -03469.6 -07.5912 26264.0
 02 08 2013  23 06  -21.0284 26033.9 -03469.6 -07.5913 26264.1
 02 08 2013  23 07  -21.0284 26033.8 -03469.7 -07.5913 26264.0
 02 08 2013  23 08  -21.0284 26033.8 -03469.6 -07.5913 26264.0
 02 08 2013  23 09  -21.0284 26033.7 -03469.6 -07.5913 26263.9
 02 08 2013  23 10  -21.0284 26033.7 -03469.6 -07.5913 26263.9
 02 08 2013  23 11  -21.0284 26033.8 -03469.6 -07.5913 26263.9
 02 08 2013  23 12  -21.0283 26033.8 -03469.6 -07.5913 26264.0
 02 08 2013  23 13  -21.0282 26033.9 -03469.7 -07.5914 26264.0
 02 08 2013  23 14  -21.0281 26033.9 -03469.7 -07.5914 26264.1
 02 08 2013  23 15  -21.0280 26033.9 -03469.7 -07.5914 26264.1
 02 08 2013  23 16  -21.0280 26033.9 -03469.7 -07.5914 26264.1
 02 08 2013  23 17  -21.0279 26033.9 -03469.7 -07.5914 26264.1
 02 08 2013  23 18  -21.0277 26033.9 -03469.7 -07.5914 26264.1
 02 08 2013  23 19  -21.0276 26033.9 -03469.7 -07.5913 26264.1
 02 08 2013  23 20  -21.0274 26033.8 -03469.6 -07.5913 26264.0
 02 08 2013  23 21  -21.0271 26033.7 -03469.6 -07.5912 26263.8
 02 08 2013  23 22  -21.0270 26033.6 -03469.6 -07.5912 26263.8
 02 08 2013  23 23  -21.0269 26033.6 -03469.6 -07.5912 26263.8
 02 08 2013  23 24  -21.0268 26033.5 -03469.5 -07.5912 26263.7
 02 08 2013  23 25  -21.0268 26033.5 -03469.6 -07.5912 26263.7
 02 08 2013  23 26  -21.0268 26033.5 -03469.6 -07.5913 26263.7
 02 08 2013  23 27  -21.0270 26033.6 -03469.7 -07.5914 26263.8
 02 08 2013  23 28  -21.0271 26033.7 -03469.7 -07.5915 26263.9
 02 08 2013  23 29  -21.0270 26033.7 -03469.7 -07.5916 26263.9
 02 08 2013  23 30  -21.0272 26033.8 -03469.8 -07.5916 26264.0
 02 08 2013  23 31  -21.0272 26033.8 -03469.7 -07.5916 26264.0
 02 08 2013  23 32  -21.0272 26033.7 -03469.7 -07.5915 26263.9
 02 08 2013  23 33  -21.0272 26033.7 -03469.7 -07.5915 26263.9
 02 08 2013  23 34  -21.0272 26033.6 -03469.7 -07.5914 26263.8
 02 08 2013  23 35  -21.0273 26033.5 -03469.6 -07.5914 26263.7
 02 08 2013  23 36  -21.0272 26033.5 -03469.6 -07.5913 26263.7
 02 08 2013  23 37  -21.0271 26033.5 -03469.6 -07.5914 26263.7
 02 08 2013  23 38  -21.0270 26033.3 -03469.6 -07.5913 26263.5
 02 08 2013  23 39  -21.0271 26033.3 -03469.5 -07.5912 26263.5
 02 08 2013  23 40  -21.0271 26033.3 -03469.5 -07.5913 26263.5
 02 08 2013  23 41  -21.0272 26033.3 -03469.6 -07.5913 26263.5
 02 08 2013  23 42  -21.0272 26033.4 -03469.6 -07.5914 26263.6
 02 08 2013  23 43  -21.0272 26033.5 -03469.7 -07.5914 26263.7
 02 08 2013  23 44  -21.0271 26033.4 -03469.6 -07.5914 26263.6
 02 08 2013  23 45  -21.0270 26033.4 -03469.6 -07.5914 26263.6
 02 08 2013  23 46  -21.0269 26033.5 -03469.7 -07.5915 26263.7
 02 08 2013  23 47  -21.0268 26033.5 -03469.7 -07.5915 26263.7
 02 08 2013  23 48  -21.0269 26033.3 -03469.6 -07.5914 26263.5
 02 08 2013  23 49  -21.0270 26033.2 -03469.6 -07.5913 26263.4
 02 08 2013  23 50  -21.0269 26033.3 -03469.6 -07.5914 26263.4
 02 08 2013  23 51  -21.0269 26033.2 -03469.6 -07.5914 26263.4
 02 08 2013  23 52  -21.0268 26033.1 -03469.6 -07.5913 26263.3
 02 08 2013  23 53  -21.0267 26033.1 -03469.6 -07.5914 26263.3
 02 08 2013  23 54  -21.0267 26033.2 -03469.6 -07.5914 26263.4
 02 08 2013  23 55  -21.0268 26033.2 -03469.6 -07.5915 26263.4
 02 08 2013  23 56  -21.0268 26033.3 -03469.7 -07.5916 26263.5
 02 08 2013  23 57  -21.0267 26033.3 -03469.7 -07.5916 26263.5
 02 08 2013  23 58  -21.0267 26033.4 -03469.7 -07.5917 26263.6
