SAO LUIS EMBRACE-03 <216> 1 Min. Reported data

 DD MM YYYY  HH MM   D(Deg)  H(nT)   Z(nT)   I(Deg)   F(nT)

 04 08 2013  00 00  -21.0250 26034.5 -03466.9 -07.5853 26264.3
 04 08 2013  00 01  -21.0250 26034.2 -03466.8 -07.5851 26264.0
 04 08 2013  00 02  -21.0251 26034.0 -03466.7 -07.5850 26263.8
 04 08 2013  00 03  -21.0251 26034.1 -03466.8 -07.5850 26264.0
 04 08 2013  00 04  -21.0250 26034.4 -03466.9 -07.5852 26264.2
 04 08 2013  00 05  -21.0248 26035.1 -03467.2 -07.5858 26264.9
 04 08 2013  00 06  -21.0245 26035.7 -03467.6 -07.5864 26265.7
 04 08 2013  00 07  -21.0244 26036.2 -03467.9 -07.5868 26266.2
 04 08 2013  00 08  -21.0243 26036.7 -03468.1 -07.5872 26266.7
 04 08 2013  00 09  -21.0242 26036.8 -03468.1 -07.5872 26266.7
 04 08 2013  00 10  -21.0242 26036.7 -03468.1 -07.5871 26266.7
 04 08 2013  00 11  -21.0241 26036.8 -03468.1 -07.5870 26266.8
 04 08 2013  00 12  -21.0240 26036.7 -03468.0 -07.5870 26266.7
 04 08 2013  00 13  -21.0241 26036.4 -03467.9 -07.5867 26266.3
 04 08 2013  00 14  -21.0242 26036.1 -03467.7 -07.5864 26266.1
 04 08 2013  00 15  -21.0244 26035.9 -03467.6 -07.5862 26265.8
 04 08 2013  00 16  -21.0243 26035.8 -03467.5 -07.5861 26265.7
 04 08 2013  00 17  -21.0244 26035.8 -03467.5 -07.5861 26265.6
 04 08 2013  00 18  -21.0243 26035.8 -03467.5 -07.5861 26265.7
 04 08 2013  00 19  -21.0242 26035.8 -03467.5 -07.5862 26265.7
 04 08 2013  00 20  -21.0240 26036.1 -03467.7 -07.5864 26266.0
 04 08 2013  00 21  -21.0238 26036.3 -03467.8 -07.5866 26266.2
 04 08 2013  00 22  -21.0236 26036.5 -03467.9 -07.5867 26266.4
 04 08 2013  00 23  -21.0234 26036.6 -03467.9 -07.5868 26266.6
 04 08 2013  00 24  -21.0232 26036.7 -03468.0 -07.5870 26266.7
 04 08 2013  00 25  -21.0232 26036.7 -03468.0 -07.5870 26266.7
 04 08 2013  00 26  -21.0233 26036.8 -03468.1 -07.5870 26266.7
 04 08 2013  00 27  -21.0234 26036.6 -03468.0 -07.5870 26266.6
 04 08 2013  00 28  -21.0236 26036.6 -03468.0 -07.5869 26266.5
 04 08 2013  00 29  -21.0238 26036.5 -03467.9 -07.5869 26266.4
 04 08 2013  00 30  -21.0239 26036.4 -03467.9 -07.5868 26266.4
 04 08 2013  00 31  -21.0239 26036.5 -03467.9 -07.5868 26266.4
 04 08 2013  00 32  -21.0239 26036.6 -03468.0 -07.5869 26266.5
 04 08 2013  00 33  -21.0238 26036.8 -03468.0 -07.5870 26266.7
 04 08 2013  00 34  -21.0237 26037.0 -03468.2 -07.5872 26266.9
 04 08 2013  00 35  -21.0236 26037.1 -03468.2 -07.5873 26267.1
 04 08 2013  00 36  -21.0235 26037.1 -03468.2 -07.5873 26267.1
 04 08 2013  00 37  -21.0234 26037.3 -03468.3 -07.5874 26267.3
 04 08 2013  00 38  -21.0234 26037.4 -03468.4 -07.5875 26267.4
 04 08 2013  00 39  -21.0233 26037.4 -03468.4 -07.5875 26267.4
 04 08 2013  00 40  -21.0233 26037.6 -03468.5 -07.5877 26267.6
 04 08 2013  00 41  -21.0233 26037.6 -03468.5 -07.5877 26267.6
 04 08 2013  00 42  -21.0232 26037.7 -03468.5 -07.5877 26267.7
 04 08 2013  00 43  -21.0231 26037.8 -03468.6 -07.5878 26267.8
 04 08 2013  00 44  -21.0229 26038.0 -03468.6 -07.5879 26268.0
 04 08 2013  00 45  -21.0228 26038.1 -03468.7 -07.5880 26268.2
 04 08 2013  00 46  -21.0228 26038.2 -03468.7 -07.5881 26268.3
 04 08 2013  00 47  -21.0228 26038.4 -03468.8 -07.5882 26268.4
 04 08 2013  00 48  -21.0228 26038.5 -03468.9 -07.5883 26268.6
 04 08 2013  00 49  -21.0228 26038.4 -03468.8 -07.5882 26268.5
 04 08 2013  00 50  -21.0229 26038.4 -03468.8 -07.5881 26268.4
 04 08 2013  00 51  -21.0230 26038.3 -03468.7 -07.5880 26268.3
 04 08 2013  00 52  -21.0232 26038.0 -03468.6 -07.5879 26268.0
 04 08 2013  00 53  -21.0233 26037.7 -03468.5 -07.5876 26267.7
 04 08 2013  00 54  -21.0235 26037.5 -03468.4 -07.5874 26267.5
 04 08 2013  00 55  -21.0236 26037.4 -03468.3 -07.5874 26267.4
 04 08 2013  00 56  -21.0237 26037.2 -03468.3 -07.5873 26267.2
 04 08 2013  00 57  -21.0239 26037.3 -03468.3 -07.5873 26267.2
 04 08 2013  00 58  -21.0240 26037.4 -03468.3 -07.5874 26267.3
 04 08 2013  00 59  -21.0239 26037.4 -03468.4 -07.5876 26267.4
 04 08 2013  01 00  -21.0238 26037.5 -03468.4 -07.5876 26267.5
 04 08 2013  01 01  -21.0237 26037.7 -03468.5 -07.5877 26267.7
 04 08 2013  01 02  -21.0236 26037.7 -03468.5 -07.5878 26267.7
 04 08 2013  01 03  -21.0237 26037.7 -03468.5 -07.5878 26267.7
 04 08 2013  01 04  -21.0238 26037.6 -03468.5 -07.5878 26267.6
 04 08 2013  01 05  -21.0237 26037.6 -03468.5 -07.5877 26267.6
 04 08 2013  01 06  -21.0238 26037.7 -03468.6 -07.5878 26267.7
 04 08 2013  01 07  -21.0239 26037.8 -03468.6 -07.5880 26267.8
 04 08 2013  01 08  -21.0239 26037.7 -03468.6 -07.5879 26267.7
 04 08 2013  01 09  -21.0239 26037.7 -03468.6 -07.5879 26267.8
 04 08 2013  01 10  -21.0237 26037.7 -03468.6 -07.5879 26267.7
 04 08 2013  01 11  -21.0235 26037.7 -03468.6 -07.5879 26267.7
 04 08 2013  01 12  -21.0234 26038.0 -03468.7 -07.5881 26268.0
 04 08 2013  01 13  -21.0235 26038.1 -03468.8 -07.5883 26268.1
 04 08 2013  01 14  -21.0235 26037.9 -03468.7 -07.5882 26267.9
 04 08 2013  01 15  -21.0233 26038.0 -03468.8 -07.5882 26268.1
 04 08 2013  01 16  -21.0229 26038.7 -03469.1 -07.5887 26268.8
 04 08 2013  01 17  -21.0227 26039.0 -03469.3 -07.5890 26269.1
 04 08 2013  01 18  -21.0225 26039.3 -03469.4 -07.5892 26269.4
 04 08 2013  01 19  -21.0225 26039.4 -03469.5 -07.5893 26269.5
 04 08 2013  01 20  -21.0224 26039.6 -03469.5 -07.5894 26269.7
 04 08 2013  01 21  -21.0225 26039.6 -03469.5 -07.5894 26269.7
 04 08 2013  01 22  -21.0225 26039.7 -03469.5 -07.5893 26269.8
 04 08 2013  01 23  -21.0225 26039.8 -03469.5 -07.5893 26269.9
 04 08 2013  01 24  -21.0228 26039.8 -03469.6 -07.5894 26270.0
 04 08 2013  01 25  -21.0228 26040.0 -03469.6 -07.5894 26270.1
 04 08 2013  01 26  -21.0229 26040.0 -03469.6 -07.5894 26270.1
 04 08 2013  01 27  -21.0230 26039.9 -03469.5 -07.5893 26270.0
 04 08 2013  01 28  -21.0230 26040.0 -03469.5 -07.5892 26270.1
 04 08 2013  01 29  -21.0229 26040.1 -03469.5 -07.5893 26270.3
 04 08 2013  01 30  -21.0227 26040.2 -03469.6 -07.5893 26270.4
 04 08 2013  01 31  -21.0225 26040.2 -03469.5 -07.5893 26270.4
 04 08 2013  01 32  -21.0224 26040.3 -03469.6 -07.5893 26270.4
 04 08 2013  01 33  -21.0223 26040.3 -03469.6 -07.5893 26270.5
 04 08 2013  01 34  -21.0222 26040.4 -03469.6 -07.5893 26270.5
 04 08 2013  01 35  -21.0222 26040.4 -03469.6 -07.5893 26270.6
 04 08 2013  01 36  -21.0223 26040.3 -03469.5 -07.5892 26270.4
 04 08 2013  01 37  -21.0222 26040.3 -03469.5 -07.5892 26270.4
 04 08 2013  01 38  -21.0222 26040.3 -03469.5 -07.5891 26270.4
 04 08 2013  01 39  -21.0222 26040.2 -03469.5 -07.5891 26270.3
 04 08 2013  01 40  -21.0220 26040.1 -03469.5 -07.5891 26270.2
 04 08 2013  01 41  -21.0220 26040.1 -03469.4 -07.5890 26270.2
 04 08 2013  01 42  -21.0219 26040.2 -03469.4 -07.5891 26270.3
 04 08 2013  01 43  -21.0219 26040.3 -03469.5 -07.5892 26270.4
 04 08 2013  01 44  -21.0218 26040.5 -03469.6 -07.5894 26270.6
 04 08 2013  01 45  -21.0218 26040.6 -03469.7 -07.5894 26270.7
 04 08 2013  01 46  -21.0218 26040.6 -03469.7 -07.5894 26270.8
 04 08 2013  01 47  -21.0216 26040.6 -03469.6 -07.5894 26270.7
 04 08 2013  01 48  -21.0214 26040.5 -03469.6 -07.5894 26270.7
 04 08 2013  01 49  -21.0213 26040.5 -03469.6 -07.5893 26270.7
 04 08 2013  01 50  -21.0212 26040.6 -03469.7 -07.5894 26270.7
 04 08 2013  01 51  -21.0210 26040.6 -03469.7 -07.5895 26270.7
 04 08 2013  01 52  -21.0210 26040.6 -03469.7 -07.5894 26270.7
 04 08 2013  01 53  -21.0209 26040.6 -03469.7 -07.5895 26270.8
 04 08 2013  01 54  -21.0210 26040.6 -03469.7 -07.5895 26270.8
 04 08 2013  01 55  -21.0211 26040.6 -03469.7 -07.5895 26270.8
 04 08 2013  01 56  -21.0213 26040.6 -03469.8 -07.5896 26270.7
 04 08 2013  01 57  -21.0215 26040.6 -03469.8 -07.5896 26270.7
 04 08 2013  01 58  -21.0216 26040.5 -03469.8 -07.5896 26270.7
 04 08 2013  01 59  -21.0215 26040.6 -03469.8 -07.5896 26270.7
 04 08 2013  02 00  -21.0213 26040.8 -03469.8 -07.5897 26270.9
 04 08 2013  02 01  -21.0211 26041.0 -03469.9 -07.5899 26271.1
 04 08 2013  02 02  -21.0208 26041.1 -03470.0 -07.5900 26271.3
 04 08 2013  02 03  -21.0206 26041.2 -03470.0 -07.5901 26271.4
 04 08 2013  02 04  -21.0204 26041.2 -03470.1 -07.5901 26271.4
 04 08 2013  02 05  -21.0202 26041.2 -03470.1 -07.5901 26271.4
 04 08 2013  02 06  -21.0201 26041.2 -03470.1 -07.5901 26271.4
 04 08 2013  02 07  -21.0199 26041.2 -03470.1 -07.5901 26271.4
 04 08 2013  02 08  -21.0198 26041.1 -03470.0 -07.5900 26271.3
 04 08 2013  02 09  -21.0197 26041.1 -03470.0 -07.5901 26271.3
 04 08 2013  02 10  -21.0196 26040.9 -03470.0 -07.5899 26271.1
 04 08 2013  02 11  -21.0195 26040.9 -03470.0 -07.5900 26271.1
 04 08 2013  02 12  -21.0194 26040.9 -03470.0 -07.5900 26271.1
 04 08 2013  02 13  -21.0193 26040.9 -03470.0 -07.5900 26271.1
 04 08 2013  02 14  -21.0192 26040.8 -03470.0 -07.5900 26271.0
 04 08 2013  02 15  -21.0192 26040.8 -03470.0 -07.5900 26271.0
 04 08 2013  02 16  -21.0192 26040.9 -03470.0 -07.5901 26271.0
 04 08 2013  02 17  -21.0193 26040.8 -03470.1 -07.5902 26271.0
 04 08 2013  02 18  -21.0194 26040.9 -03470.1 -07.5902 26271.0
 04 08 2013  02 19  -21.0193 26040.8 -03470.1 -07.5903 26271.0
 04 08 2013  02 20  -21.0195 26040.8 -03470.0 -07.5902 26271.0
 04 08 2013  02 21  -21.0195 26040.7 -03470.0 -07.5902 26270.9
 04 08 2013  02 22  -21.0195 26040.7 -03470.0 -07.5902 26270.9
 04 08 2013  02 23  -21.0195 26040.6 -03470.0 -07.5901 26270.8
 04 08 2013  02 24  -21.0193 26040.6 -03470.0 -07.5901 26270.8
 04 08 2013  02 25  -21.0192 26040.5 -03470.0 -07.5901 26270.7
 04 08 2013  02 26  -21.0189 26040.5 -03470.0 -07.5901 26270.7
 04 08 2013  02 27  -21.0187 26040.5 -03469.9 -07.5900 26270.6
 04 08 2013  02 28  -21.0184 26040.4 -03469.9 -07.5901 26270.6
 04 08 2013  02 29  -21.0182 26040.5 -03470.0 -07.5902 26270.7
 04 08 2013  02 30  -21.0180 26040.6 -03470.1 -07.5903 26270.8
 04 08 2013  02 31  -21.0179 26040.7 -03470.2 -07.5905 26270.9
 04 08 2013  02 32  -21.0177 26040.7 -03470.2 -07.5906 26270.9
 04 08 2013  02 33  -21.0177 26040.7 -03470.2 -07.5906 26270.9
 04 08 2013  02 34  -21.0176 26040.7 -03470.2 -07.5906 26270.9
 04 08 2013  02 35  -21.0173 26040.9 -03470.3 -07.5907 26271.1
 04 08 2013  02 36  -21.0171 26040.9 -03470.4 -07.5908 26271.1
 04 08 2013  02 37  -21.0170 26041.0 -03470.4 -07.5909 26271.2
 04 08 2013  02 38  -21.0169 26041.1 -03470.5 -07.5911 26271.3
 04 08 2013  02 39  -21.0168 26041.3 -03470.6 -07.5912 26271.5
 04 08 2013  02 40  -21.0168 26041.4 -03470.7 -07.5913 26271.6
 04 08 2013  02 41  -21.0168 26041.4 -03470.7 -07.5914 26271.7
 04 08 2013  02 42  -21.0169 26041.4 -03470.7 -07.5913 26271.6
 04 08 2013  02 43  -21.0169 26041.4 -03470.7 -07.5913 26271.6
 04 08 2013  02 44  -21.0168 26041.4 -03470.7 -07.5914 26271.7
 04 08 2013  02 45  -21.0167 26041.4 -03470.7 -07.5913 26271.7
 04 08 2013  02 46  -21.0162 26041.6 -03470.7 -07.5915 26271.9
 04 08 2013  02 47  -21.0159 26041.7 -03470.8 -07.5915 26272.0
 04 08 2013  02 48  -21.0158 26041.7 -03470.8 -07.5915 26271.9
 04 08 2013  02 49  -21.0159 26041.4 -03470.7 -07.5914 26271.7
 04 08 2013  02 50  -21.0160 26041.3 -03470.6 -07.5912 26271.5
 04 08 2013  02 51  -21.0162 26041.2 -03470.6 -07.5912 26271.4
 04 08 2013  02 52  -21.0163 26041.0 -03470.5 -07.5911 26271.3
 04 08 2013  02 53  -21.0163 26041.0 -03470.5 -07.5911 26271.3
 04 08 2013  02 54  -21.0163 26041.0 -03470.5 -07.5910 26271.2
 04 08 2013  02 55  -21.0162 26041.0 -03470.5 -07.5910 26271.2
 04 08 2013  02 56  -21.0160 26041.0 -03470.5 -07.5911 26271.3
 04 08 2013  02 57  -21.0160 26041.0 -03470.5 -07.5911 26271.3
 04 08 2013  02 58  -21.0159 26041.0 -03470.5 -07.5911 26271.3
 04 08 2013  02 59  -21.0157 26041.0 -03470.5 -07.5912 26271.2
 04 08 2013  03 00  -21.0156 26040.9 -03470.5 -07.5911 26271.1
 04 08 2013  03 01  -21.0155 26040.9 -03470.5 -07.5911 26271.2
 04 08 2013  03 02  -21.0153 26040.9 -03470.5 -07.5912 26271.2
 04 08 2013  03 03  -21.0153 26040.9 -03470.5 -07.5912 26271.1
 04 08 2013  03 04  -21.0151 26040.9 -03470.5 -07.5912 26271.1
 04 08 2013  03 05  -21.0151 26040.9 -03470.5 -07.5912 26271.1
 04 08 2013  03 06  -21.0151 26040.9 -03470.6 -07.5912 26271.1
 04 08 2013  03 07  -21.0151 26041.0 -03470.6 -07.5913 26271.2
 04 08 2013  03 08  -21.0151 26041.0 -03470.6 -07.5914 26271.3
 04 08 2013  03 09  -21.0152 26041.0 -03470.7 -07.5915 26271.3
 04 08 2013  03 10  -21.0151 26041.0 -03470.7 -07.5914 26271.2
 04 08 2013  03 11  -21.0151 26040.9 -03470.6 -07.5914 26271.2
 04 08 2013  03 12  -21.0152 26040.8 -03470.6 -07.5914 26271.0
 04 08 2013  03 13  -21.0151 26040.7 -03470.6 -07.5913 26271.0
 04 08 2013  03 14  -21.0151 26040.6 -03470.5 -07.5913 26270.9
 04 08 2013  03 15  -21.0152 26040.4 -03470.4 -07.5911 26270.7
 04 08 2013  03 16  -21.0152 26040.4 -03470.4 -07.5911 26270.6
 04 08 2013  03 17  -21.0152 26040.1 -03470.3 -07.5909 26270.3
 04 08 2013  03 18  -21.0153 26039.9 -03470.2 -07.5908 26270.1
 04 08 2013  03 19  -21.0154 26039.8 -03470.2 -07.5908 26270.0
 04 08 2013  03 20  -21.0153 26039.7 -03470.2 -07.5908 26269.9
 04 08 2013  03 21  -21.0153 26039.7 -03470.2 -07.5909 26270.0
 04 08 2013  03 22  -21.0154 26039.6 -03470.2 -07.5909 26269.8
 04 08 2013  03 23  -21.0153 26039.6 -03470.2 -07.5909 26269.8
 04 08 2013  03 24  -21.0151 26039.7 -03470.3 -07.5910 26269.9
 04 08 2013  03 25  -21.0150 26039.6 -03470.3 -07.5910 26269.9
 04 08 2013  03 26  -21.0148 26039.7 -03470.4 -07.5911 26270.0
 04 08 2013  03 27  -21.0148 26039.7 -03470.3 -07.5911 26269.9
 04 08 2013  03 28  -21.0147 26039.8 -03470.4 -07.5913 26270.0
 04 08 2013  03 29  -21.0147 26039.6 -03470.4 -07.5912 26269.8
 04 08 2013  03 30  -21.0144 26039.6 -03470.3 -07.5911 26269.8
 04 08 2013  03 31  -21.0142 26039.6 -03470.4 -07.5912 26269.8
 04 08 2013  03 32  -21.0140 26039.7 -03470.4 -07.5913 26270.0
 04 08 2013  03 33  -21.0138 26039.9 -03470.5 -07.5915 26270.1
 04 08 2013  03 34  -21.0138 26039.9 -03470.6 -07.5917 26270.2
 04 08 2013  03 35  -21.0140 26039.9 -03470.6 -07.5917 26270.2
 04 08 2013  03 36  -21.0140 26040.0 -03470.7 -07.5918 26270.3
 04 08 2013  03 37  -21.0143 26039.9 -03470.7 -07.5919 26270.2
 04 08 2013  03 38  -21.0147 26039.7 -03470.6 -07.5917 26269.9
 04 08 2013  03 39  -21.0147 26039.8 -03470.6 -07.5917 26270.0
 04 08 2013  03 40  -21.0148 26039.8 -03470.7 -07.5918 26270.1
 04 08 2013  03 41  -21.0149 26039.6 -03470.6 -07.5917 26269.9
 04 08 2013  03 42  -21.0150 26039.7 -03470.6 -07.5917 26269.9
 04 08 2013  03 43  -21.0150 26039.4 -03470.5 -07.5915 26269.6
 04 08 2013  03 44  -21.0149 26039.3 -03470.4 -07.5914 26269.5
 04 08 2013  03 45  -21.0149 26039.2 -03470.4 -07.5915 26269.5
 04 08 2013  03 46  -21.0149 26039.3 -03470.5 -07.5916 26269.6
 04 08 2013  03 47  -21.0148 26039.4 -03470.6 -07.5917 26269.7
 04 08 2013  03 48  -21.0148 26039.5 -03470.6 -07.5918 26269.8
 04 08 2013  03 49  -21.0149 26039.3 -03470.5 -07.5917 26269.5
 04 08 2013  03 50  -21.0149 26039.2 -03470.5 -07.5917 26269.5
 04 08 2013  03 51  -21.0152 26039.2 -03470.6 -07.5918 26269.5
 04 08 2013  03 52  -21.0153 26039.1 -03470.6 -07.5918 26269.4
 04 08 2013  03 53  -21.0154 26039.2 -03470.6 -07.5919 26269.4
 04 08 2013  03 54  -21.0156 26039.0 -03470.6 -07.5919 26269.3
 04 08 2013  03 55  -21.0155 26039.0 -03470.6 -07.5918 26269.2
 04 08 2013  03 56  -21.0155 26038.9 -03470.6 -07.5919 26269.2
 04 08 2013  03 57  -21.0154 26038.8 -03470.6 -07.5918 26269.1
 04 08 2013  03 58  -21.0156 26038.7 -03470.5 -07.5918 26269.0
 04 08 2013  03 59  -21.0154 26038.5 -03470.4 -07.5917 26268.7
 04 08 2013  04 00  -21.0152 26038.6 -03470.5 -07.5918 26268.8
 04 08 2013  04 01  -21.0152 26038.7 -03470.6 -07.5920 26269.0
 04 08 2013  04 02  -21.0151 26038.7 -03470.6 -07.5921 26269.0
 04 08 2013  04 03  -21.0151 26038.9 -03470.8 -07.5923 26269.2
 04 08 2013  04 04  -21.0150 26038.8 -03470.8 -07.5924 26269.1
 04 08 2013  04 05  -21.0150 26038.8 -03470.8 -07.5925 26269.1
 04 08 2013  04 06  -21.0150 26039.0 -03470.9 -07.5926 26269.3
 04 08 2013  04 07  -21.0150 26039.2 -03471.1 -07.5929 26269.5
 04 08 2013  04 08  -21.0148 26039.2 -03471.1 -07.5930 26269.6
 04 08 2013  04 09  -21.0146 26039.5 -03471.2 -07.5931 26269.8
 04 08 2013  04 10  -21.0145 26039.6 -03471.3 -07.5933 26269.9
 04 08 2013  04 11  -21.0146 26039.5 -03471.3 -07.5932 26269.8
 04 08 2013  04 12  -21.0146 26039.5 -03471.3 -07.5932 26269.8
 04 08 2013  04 13  -21.0146 26039.4 -03471.3 -07.5932 26269.8
 04 08 2013  04 14  -21.0145 26039.7 -03471.4 -07.5934 26270.1
 04 08 2013  04 15  -21.0144 26039.8 -03471.5 -07.5936 26270.2
 04 08 2013  04 16  -21.0144 26039.9 -03471.5 -07.5936 26270.3
 04 08 2013  04 17  -21.0143 26040.0 -03471.6 -07.5937 26270.4
 04 08 2013  04 18  -21.0143 26039.9 -03471.5 -07.5936 26270.3
 04 08 2013  04 19  -21.0140 26040.1 -03471.6 -07.5937 26270.5
 04 08 2013  04 20  -21.0135 26040.2 -03471.7 -07.5938 26270.6
 04 08 2013  04 21  -21.0131 26040.4 -03471.7 -07.5939 26270.8
 04 08 2013  04 22  -21.0128 26040.5 -03471.8 -07.5940 26271.0
 04 08 2013  04 23  -21.0126 26040.7 -03471.9 -07.5942 26271.2
 04 08 2013  04 24  -21.0124 26040.9 -03471.9 -07.5942 26271.4
 04 08 2013  04 25  -21.0121 26041.3 -03472.1 -07.5945 26271.7
 04 08 2013  04 26  -21.0117 26041.6 -03472.3 -07.5947 26272.1
 04 08 2013  04 27  -21.0115 26041.9 -03472.4 -07.5949 26272.4
 04 08 2013  04 28  -21.0111 26042.2 -03472.5 -07.5951 26272.7
 04 08 2013  04 29  -21.0110 26042.4 -03472.6 -07.5953 26272.9
 04 08 2013  04 30  -21.0108 26042.5 -03472.6 -07.5953 26273.0
 04 08 2013  04 31  -21.0107 26042.7 -03472.7 -07.5953 26273.2
 04 08 2013  04 32  -21.0105 26042.9 -03472.7 -07.5953 26273.4
 04 08 2013  04 33  -21.0104 26042.9 -03472.7 -07.5953 26273.4
 04 08 2013  04 34  -21.0103 26042.9 -03472.7 -07.5953 26273.5
 04 08 2013  04 35  -21.0103 26043.0 -03472.7 -07.5953 26273.5
 04 08 2013  04 36  -21.0103 26043.0 -03472.7 -07.5952 26273.5
 04 08 2013  04 37  -21.0104 26043.0 -03472.7 -07.5952 26273.5
 04 08 2013  04 38  -21.0105 26043.0 -03472.6 -07.5951 26273.5
 04 08 2013  04 39  -21.0106 26042.8 -03472.5 -07.5949 26273.3
 04 08 2013  04 40  -21.0107 26042.7 -03472.4 -07.5947 26273.2
 04 08 2013  04 41  -21.0109 26042.6 -03472.3 -07.5946 26273.1
 04 08 2013  04 42  -21.0110 26042.5 -03472.3 -07.5945 26273.0
 04 08 2013  04 43  -21.0110 26042.5 -03472.3 -07.5945 26273.0
 04 08 2013  04 44  -21.0111 26042.5 -03472.2 -07.5944 26273.0
 04 08 2013  04 45  -21.0110 26042.4 -03472.2 -07.5943 26272.9
 04 08 2013  04 46  -21.0110 26042.3 -03472.1 -07.5942 26272.8
 04 08 2013  04 47  -21.0109 26042.3 -03472.1 -07.5942 26272.7
 04 08 2013  04 48  -21.0109 26042.3 -03472.1 -07.5941 26272.7
 04 08 2013  04 49  -21.0107 26042.2 -03472.1 -07.5942 26272.7
 04 08 2013  04 50  -21.0106 26042.3 -03472.1 -07.5942 26272.8
 04 08 2013  04 51  -21.0104 26042.4 -03472.1 -07.5942 26272.8
 04 08 2013  04 52  -21.0103 26042.4 -03472.2 -07.5943 26272.9
 04 08 2013  04 53  -21.0101 26042.4 -03472.2 -07.5943 26272.9
 04 08 2013  04 54  -21.0100 26042.5 -03472.2 -07.5944 26272.9
 04 08 2013  04 55  -21.0100 26042.5 -03472.2 -07.5944 26273.0
 04 08 2013  04 56  -21.0099 26042.5 -03472.2 -07.5944 26272.9
 04 08 2013  04 57  -21.0099 26042.5 -03472.2 -07.5944 26273.0
 04 08 2013  04 58  -21.0099 26042.5 -03472.2 -07.5944 26272.9
 04 08 2013  04 59  -21.0101 26042.4 -03472.2 -07.5943 26272.8
 04 08 2013  05 00  -21.0103 26042.3 -03472.1 -07.5943 26272.7
 04 08 2013  05 01  -21.0105 26042.2 -03472.1 -07.5942 26272.6
 04 08 2013  05 02  -21.0106 26042.1 -03472.1 -07.5942 26272.6
 04 08 2013  05 03  -21.0106 26042.2 -03472.1 -07.5942 26272.6
 04 08 2013  05 04  -21.0106 26042.2 -03472.1 -07.5942 26272.7
 04 08 2013  05 05  -21.0107 26042.2 -03472.1 -07.5942 26272.7
 04 08 2013  05 06  -21.0107 26042.2 -03472.1 -07.5942 26272.7
 04 08 2013  05 07  -21.0107 26042.3 -03472.1 -07.5942 26272.8
 04 08 2013  05 08  -21.0106 26042.4 -03472.2 -07.5943 26272.9
 04 08 2013  05 09  -21.0106 26042.6 -03472.2 -07.5944 26273.0
 04 08 2013  05 10  -21.0106 26042.6 -03472.3 -07.5944 26273.0
 04 08 2013  05 11  -21.0106 26042.6 -03472.3 -07.5944 26273.0
 04 08 2013  05 12  -21.0106 26042.6 -03472.2 -07.5944 26273.0
 04 08 2013  05 13  -21.0105 26042.7 -03472.3 -07.5945 26273.1
 04 08 2013  05 14  -21.0106 26042.6 -03472.2 -07.5944 26273.1
 04 08 2013  05 15  -21.0106 26042.6 -03472.2 -07.5944 26273.1
 04 08 2013  05 16  -21.0107 26042.7 -03472.3 -07.5944 26273.2
 04 08 2013  05 17  -21.0107 26042.8 -03472.3 -07.5945 26273.3
 04 08 2013  05 18  -21.0106 26042.8 -03472.3 -07.5945 26273.3
 04 08 2013  05 19  -21.0105 26042.8 -03472.3 -07.5944 26273.2
 04 08 2013  05 20  -21.0104 26042.8 -03472.3 -07.5944 26273.2
 04 08 2013  05 21  -21.0104 26042.7 -03472.2 -07.5943 26273.2
 04 08 2013  05 22  -21.0103 26042.7 -03472.2 -07.5944 26273.1
 04 08 2013  05 23  -21.0103 26042.6 -03472.2 -07.5943 26273.1
 04 08 2013  05 24  -21.0100 26042.6 -03472.2 -07.5942 26273.1
 04 08 2013  05 25  -21.0097 26042.7 -03472.2 -07.5942 26273.1
 04 08 2013  05 26  -21.0094 26042.6 -03472.2 -07.5942 26273.1
 04 08 2013  05 27  -21.0093 26042.6 -03472.1 -07.5942 26273.0
 04 08 2013  05 28  -21.0093 26042.5 -03472.1 -07.5942 26272.9
 04 08 2013  05 29  -21.0093 26042.3 -03472.1 -07.5942 26272.8
 04 08 2013  05 30  -21.0091 26042.3 -03472.1 -07.5941 26272.7
 04 08 2013  05 31  -21.0090 26042.2 -03472.1 -07.5941 26272.7
 04 08 2013  05 32  -21.0089 26042.2 -03472.1 -07.5942 26272.7
 04 08 2013  05 33  -21.0089 26042.2 -03472.1 -07.5942 26272.6
 04 08 2013  05 34  -21.0087 26042.1 -03472.1 -07.5942 26272.5
 04 08 2013  05 35  -21.0084 26042.1 -03472.1 -07.5942 26272.5
 04 08 2013  05 36  -21.0082 26042.0 -03472.1 -07.5942 26272.4
 04 08 2013  05 37  -21.0081 26041.9 -03472.1 -07.5942 26272.4
 04 08 2013  05 38  -21.0081 26041.9 -03472.1 -07.5942 26272.3
 04 08 2013  05 39  -21.0081 26041.9 -03472.1 -07.5942 26272.4
 04 08 2013  05 40  -21.0080 26042.0 -03472.2 -07.5944 26272.5
 04 08 2013  05 41  -21.0078 26042.2 -03472.2 -07.5945 26272.7
 04 08 2013  05 42  -21.0075 26042.3 -03472.3 -07.5946 26272.7
 04 08 2013  05 43  -21.0074 26042.2 -03472.3 -07.5946 26272.7
 04 08 2013  05 44  -21.0073 26042.0 -03472.2 -07.5945 26272.5
 04 08 2013  05 45  -21.0074 26041.7 -03472.1 -07.5943 26272.1
 04 08 2013  05 46  -21.0076 26041.4 -03472.0 -07.5942 26271.8
 04 08 2013  05 47  -21.0078 26041.2 -03471.9 -07.5941 26271.6
 04 08 2013  05 48  -21.0080 26041.0 -03471.9 -07.5940 26271.4
 04 08 2013  05 49  -21.0080 26041.0 -03471.8 -07.5940 26271.4
 04 08 2013  05 50  -21.0079 26040.9 -03471.8 -07.5940 26271.3
 04 08 2013  05 51  -21.0077 26040.9 -03471.9 -07.5940 26271.4
 04 08 2013  05 52  -21.0076 26040.9 -03471.9 -07.5941 26271.3
 04 08 2013  05 53  -21.0074 26040.9 -03471.9 -07.5941 26271.3
 04 08 2013  05 54  -21.0071 26040.9 -03471.9 -07.5942 26271.4
 04 08 2013  05 55  -21.0070 26040.9 -03472.0 -07.5943 26271.3
 04 08 2013  05 56  -21.0070 26041.0 -03472.1 -07.5945 26271.4
 04 08 2013  05 57  -21.0070 26041.1 -03472.1 -07.5946 26271.5
 04 08 2013  05 58  -21.0070 26041.1 -03472.1 -07.5946 26271.6
 04 08 2013  05 59  -21.0068 26041.2 -03472.2 -07.5947 26271.7
 04 08 2013  06 00  -21.0067 26041.4 -03472.3 -07.5948 26271.8
 04 08 2013  06 01  -21.0065 26041.5 -03472.3 -07.5949 26271.9
 04 08 2013  06 02  -21.0062 26041.6 -03472.4 -07.5951 26272.1
 04 08 2013  06 03  -21.0059 26041.7 -03472.5 -07.5952 26272.2
 04 08 2013  06 04  -21.0058 26041.7 -03472.5 -07.5953 26272.2
 04 08 2013  06 05  -21.0056 26041.7 -03472.6 -07.5953 26272.2
 04 08 2013  06 06  -21.0053 26042.0 -03472.7 -07.5955 26272.5
 04 08 2013  06 07  -21.0052 26042.1 -03472.8 -07.5957 26272.6
 04 08 2013  06 08  -21.0050 26042.2 -03472.9 -07.5958 26272.8
 04 08 2013  06 09  -21.0046 26042.4 -03473.0 -07.5960 26273.0
 04 08 2013  06 10  -21.0046 26042.2 -03472.9 -07.5959 26272.8
 04 08 2013  06 11  -21.0045 26042.4 -03473.0 -07.5961 26273.0
 04 08 2013  06 12  -21.0043 26042.4 -03473.0 -07.5961 26273.0
 04 08 2013  06 13  -21.0041 26042.5 -03473.1 -07.5963 26273.1
 04 08 2013  06 14  -21.0040 26042.5 -03473.1 -07.5963 26273.1
 04 08 2013  06 15  -21.0037 26042.6 -03473.1 -07.5963 26273.2
 04 08 2013  06 16  -21.0037 26042.4 -03473.0 -07.5962 26273.0
 04 08 2013  06 17  -21.0032 26042.5 -03473.0 -07.5961 26273.0
 04 08 2013  06 18  -21.0029 26042.5 -03473.1 -07.5962 26273.1
 04 08 2013  06 19  -21.0026 26042.4 -03473.0 -07.5962 26273.0
 04 08 2013  06 20  -21.0023 26042.6 -03473.1 -07.5963 26273.1
 04 08 2013  06 21  -21.0021 26042.4 -03473.1 -07.5962 26273.0
 04 08 2013  06 22  -21.0020 26042.2 -03473.0 -07.5961 26272.8
 04 08 2013  06 23  -21.0020 26041.9 -03472.9 -07.5960 26272.5
 04 08 2013  06 24  -21.0024 26041.4 -03472.7 -07.5957 26271.9
 04 08 2013  06 25  -21.0026 26041.4 -03472.7 -07.5956 26272.0
 04 08 2013  06 26  -21.0028 26041.7 -03472.9 -07.5960 26272.3
 04 08 2013  06 27  -21.0027 26041.6 -03472.7 -07.5958 26272.1
 04 08 2013  06 28  -21.0020 26042.1 -03473.0 -07.5962 26272.7
 04 08 2013  06 29  -21.0022 26041.7 -03472.9 -07.5960 26272.3
 04 08 2013  06 30  -21.0015 26042.0 -03472.9 -07.5961 26272.6
 04 08 2013  06 31  -21.0012 26041.9 -03473.0 -07.5962 26272.5
 04 08 2013  06 32  -21.0011 26041.8 -03472.9 -07.5961 26272.3
 04 08 2013  06 33  -21.0015 26041.7 -03473.0 -07.5962 26272.2
 04 08 2013  06 34  -21.0024 26040.9 -03472.6 -07.5957 26271.4
 04 08 2013  06 35  -21.0026 26040.9 -03472.6 -07.5956 26271.4
 04 08 2013  06 36  -21.0031 26040.8 -03472.6 -07.5956 26271.3
 04 08 2013  06 37  -21.0031 26040.4 -03472.3 -07.5952 26270.9
 04 08 2013  06 38  -21.0027 26041.0 -03472.6 -07.5957 26271.5
 04 08 2013  06 39  -21.0032 26040.5 -03472.5 -07.5957 26271.0
 04 08 2013  06 40  -21.0032 26040.4 -03472.5 -07.5957 26271.0
 04 08 2013  06 41  -21.0034 26040.4 -03472.5 -07.5957 26270.9
 04 08 2013  06 42  -21.0028 26040.5 -03472.5 -07.5956 26271.0
 04 08 2013  06 43  -21.0018 26041.0 -03472.8 -07.5960 26271.5
 04 08 2013  06 44  -21.0014 26041.0 -03472.8 -07.5960 26271.5
 04 08 2013  06 45  -21.0011 26040.4 -03472.6 -07.5958 26270.9
 04 08 2013  06 46  -21.0018 26039.3 -03472.1 -07.5951 26269.7
 04 08 2013  06 47  -21.0027 26038.2 -03471.6 -07.5944 26268.6
 04 08 2013  06 48  -21.0038 26037.6 -03471.3 -07.5938 26268.0
 04 08 2013  06 49  -21.0048 26037.6 -03471.3 -07.5937 26268.0
 04 08 2013  06 50  -21.0054 26038.1 -03471.5 -07.5941 26268.5
 04 08 2013  06 51  -21.0067 26038.1 -03471.6 -07.5943 26268.5
 04 08 2013  06 52  -21.0068 26038.6 -03471.7 -07.5945 26269.0
 04 08 2013  06 53  -21.0068 26039.5 -03472.3 -07.5954 26270.0
 04 08 2013  06 54  -21.0070 26040.0 -03472.5 -07.5958 26270.5
 04 08 2013  06 55  -21.0069 26040.7 -03473.0 -07.5965 26271.3
 04 08 2013  06 56  -21.0071 26040.7 -03473.0 -07.5965 26271.3
 04 08 2013  06 57  -21.0066 26041.5 -03473.3 -07.5970 26272.1
 04 08 2013  06 58  -21.0066 26041.9 -03473.5 -07.5974 26272.5
 04 08 2013  06 59  -21.0068 26041.9 -03473.6 -07.5975 26272.5
 04 08 2013  07 00  -21.0077 26041.8 -03473.5 -07.5974 26272.5
 04 08 2013  07 01  -21.0085 26041.5 -03473.3 -07.5969 26272.2
 04 08 2013  07 02  -21.0089 26041.9 -03473.3 -07.5970 26272.5
 04 08 2013  07 03  -21.0092 26042.1 -03473.4 -07.5971 26272.7
 04 08 2013  07 04  -21.0097 26042.1 -03473.4 -07.5971 26272.7
 04 08 2013  07 05  -21.0102 26042.0 -03473.3 -07.5969 26272.6
 04 08 2013  07 06  -21.0106 26041.7 -03473.1 -07.5966 26272.2
 04 08 2013  07 07  -21.0109 26041.6 -03473.0 -07.5963 26272.2
 04 08 2013  07 08  -21.0111 26041.5 -03473.0 -07.5963 26272.1
 04 08 2013  07 09  -21.0111 26041.2 -03472.7 -07.5958 26271.7
 04 08 2013  07 10  -21.0111 26041.2 -03472.7 -07.5957 26271.7
 04 08 2013  07 11  -21.0111 26040.9 -03472.5 -07.5955 26271.4
 04 08 2013  07 12  -21.0109 26040.9 -03472.5 -07.5954 26271.4
 04 08 2013  07 13  -21.0108 26040.8 -03472.5 -07.5954 26271.3
 04 08 2013  07 14  -21.0107 26041.0 -03472.5 -07.5955 26271.5
 04 08 2013  07 15  -21.0108 26041.1 -03472.6 -07.5956 26271.6
 04 08 2013  07 16  -21.0107 26041.2 -03472.7 -07.5957 26271.7
 04 08 2013  07 17  -21.0107 26041.2 -03472.6 -07.5957 26271.8
 04 08 2013  07 18  -21.0106 26041.2 -03472.6 -07.5956 26271.7
 04 08 2013  07 19  -21.0107 26041.2 -03472.6 -07.5955 26271.7
 04 08 2013  07 20  -21.0106 26041.0 -03472.5 -07.5955 26271.5
 04 08 2013  07 21  -21.0105 26040.9 -03472.5 -07.5954 26271.4
 04 08 2013  07 22  -21.0104 26040.7 -03472.3 -07.5951 26271.1
 04 08 2013  07 23  -21.0102 26040.6 -03472.3 -07.5951 26271.0
 04 08 2013  07 24  -21.0098 26040.6 -03472.3 -07.5951 26271.1
 04 08 2013  07 25  -21.0095 26040.6 -03472.3 -07.5952 26271.1
 04 08 2013  07 26  -21.0094 26040.5 -03472.3 -07.5952 26271.0
 04 08 2013  07 27  -21.0092 26040.5 -03472.3 -07.5951 26271.0
 04 08 2013  07 28  -21.0089 26040.4 -03472.3 -07.5951 26270.9
 04 08 2013  07 29  -21.0087 26040.4 -03472.3 -07.5951 26270.9
 04 08 2013  07 30  -21.0086 26040.5 -03472.3 -07.5952 26271.0
 04 08 2013  07 31  -21.0087 26040.4 -03472.4 -07.5953 26270.9
 04 08 2013  07 32  -21.0087 26040.4 -03472.3 -07.5952 26270.9
 04 08 2013  07 33  -21.0084 26040.5 -03472.4 -07.5953 26271.0
 04 08 2013  07 34  -21.0082 26040.5 -03472.4 -07.5954 26271.0
 04 08 2013  07 35  -21.0082 26040.7 -03472.5 -07.5955 26271.2
 04 08 2013  07 36  -21.0082 26040.8 -03472.6 -07.5956 26271.3
 04 08 2013  07 37  -21.0082 26040.8 -03472.6 -07.5956 26271.3
 04 08 2013  07 38  -21.0084 26040.8 -03472.6 -07.5957 26271.4
 04 08 2013  07 39  -21.0085 26040.9 -03472.6 -07.5957 26271.4
 04 08 2013  07 40  -21.0083 26040.8 -03472.6 -07.5957 26271.4
 04 08 2013  07 41  -21.0082 26040.8 -03472.6 -07.5956 26271.3
 04 08 2013  07 42  -21.0079 26040.9 -03472.6 -07.5956 26271.4
 04 08 2013  07 43  -21.0078 26040.8 -03472.6 -07.5956 26271.3
 04 08 2013  07 44  -21.0074 26040.7 -03472.5 -07.5955 26271.2
 04 08 2013  07 45  -21.0071 26040.7 -03472.4 -07.5954 26271.2
 04 08 2013  07 46  -21.0069 26040.6 -03472.4 -07.5953 26271.1
 04 08 2013  07 47  -21.0068 26040.8 -03472.5 -07.5956 26271.3
 04 08 2013  07 48  -21.0067 26040.8 -03472.6 -07.5957 26271.3
 04 08 2013  07 49  -21.0065 26040.6 -03472.6 -07.5957 26271.2
 04 08 2013  07 50  -21.0063 26040.4 -03472.5 -07.5955 26270.9
 04 08 2013  07 51  -21.0061 26040.1 -03472.3 -07.5952 26270.6
 04 08 2013  07 52  -21.0059 26039.9 -03472.2 -07.5950 26270.4
 04 08 2013  07 53  -21.0058 26039.8 -03472.1 -07.5950 26270.2
 04 08 2013  07 54  -21.0059 26039.8 -03472.2 -07.5952 26270.2
 04 08 2013  07 55  -21.0061 26039.6 -03472.3 -07.5953 26270.1
 04 08 2013  07 56  -21.0060 26039.4 -03472.1 -07.5950 26269.9
 04 08 2013  07 57  -21.0057 26039.2 -03472.1 -07.5950 26269.7
 04 08 2013  07 58  -21.0055 26039.1 -03472.0 -07.5948 26269.5
 04 08 2013  07 59  -21.0053 26039.0 -03471.9 -07.5947 26269.5
 04 08 2013  08 00  -21.0049 26039.1 -03472.0 -07.5949 26269.6
 04 08 2013  08 01  -21.0048 26039.3 -03472.2 -07.5952 26269.8
 04 08 2013  08 02  -21.0045 26039.4 -03472.3 -07.5954 26269.9
 04 08 2013  08 03  -21.0044 26039.5 -03472.3 -07.5955 26270.0
 04 08 2013  08 04  -21.0042 26039.3 -03472.2 -07.5954 26269.8
 04 08 2013  08 05  -21.0037 26038.9 -03472.1 -07.5950 26269.4
 04 08 2013  08 06  -21.0033 26038.8 -03472.0 -07.5949 26269.2
 04 08 2013  08 07  -21.0032 26038.7 -03472.0 -07.5950 26269.2
 04 08 2013  08 08  -21.0028 26038.6 -03472.0 -07.5951 26269.0
 04 08 2013  08 09  -21.0024 26038.4 -03472.0 -07.5951 26268.9
 04 08 2013  08 10  -21.0021 26038.4 -03472.0 -07.5950 26268.8
 04 08 2013  08 11  -21.0016 26038.4 -03472.0 -07.5952 26268.8
 04 08 2013  08 12  -21.0011 26038.4 -03472.1 -07.5953 26268.8
 04 08 2013  08 13  -21.0006 26038.2 -03472.0 -07.5952 26268.7
 04 08 2013  08 14  -20.9998 26038.0 -03471.9 -07.5951 26268.4
 04 08 2013  08 15  -20.9997 26037.7 -03471.8 -07.5950 26268.1
 04 08 2013  08 16  -20.9996 26037.5 -03471.8 -07.5950 26267.9
 04 08 2013  08 17  -20.9997 26037.3 -03471.8 -07.5950 26267.7
 04 08 2013  08 18  -20.9995 26036.9 -03471.7 -07.5949 26267.3
 04 08 2013  08 19  -20.9994 26036.7 -03471.6 -07.5948 26267.1
 04 08 2013  08 20  -20.9996 26036.8 -03471.7 -07.5949 26267.2
 04 08 2013  08 21  -20.9997 26036.8 -03471.8 -07.5950 26267.2
 04 08 2013  08 22  -20.9995 26036.6 -03471.7 -07.5949 26267.0
 04 08 2013  08 23  -20.9988 26036.3 -03471.5 -07.5946 26266.7
 04 08 2013  08 24  -20.9985 26036.1 -03471.4 -07.5945 26266.5
 04 08 2013  08 25  -20.9984 26036.1 -03471.4 -07.5946 26266.5
 04 08 2013  08 26  -20.9980 26036.1 -03471.5 -07.5947 26266.5
 04 08 2013  08 27  -20.9974 26036.0 -03471.5 -07.5946 26266.4
 04 08 2013  08 28  -20.9971 26036.0 -03471.5 -07.5948 26266.4
 04 08 2013  08 29  -20.9970 26035.9 -03471.6 -07.5949 26266.3
 04 08 2013  08 30  -20.9969 26036.0 -03471.6 -07.5949 26266.4
 04 08 2013  08 31  -20.9963 26035.8 -03471.5 -07.5947 26266.2
 04 08 2013  08 32  -20.9962 26035.6 -03471.3 -07.5944 26266.0
 04 08 2013  08 33  -20.9961 26035.7 -03471.3 -07.5945 26266.1
 04 08 2013  08 34  -20.9953 26035.6 -03471.4 -07.5945 26266.0
 04 08 2013  08 35  -20.9930 26035.9 -03471.4 -07.5945 26266.3
 04 08 2013  08 36  -20.9908 26036.1 -03471.4 -07.5945 26266.5
 04 08 2013  08 37  -20.9893 26036.8 -03471.7 -07.5949 26267.2
 04 08 2013  08 38  -20.9886 26037.4 -03472.2 -07.5957 26267.9
 04 08 2013  08 39  -20.9883 26037.8 -03472.5 -07.5963 26268.3
 04 08 2013  08 40  -20.9877 26036.9 -03472.0 -07.5955 26267.4
 04 08 2013  08 41  -20.9872 26037.0 -03472.0 -07.5956 26267.5
 04 08 2013  08 42  -20.9866 26037.4 -03472.1 -07.5957 26267.9
 04 08 2013  08 43  -20.9861 26038.9 -03472.8 -07.5967 26269.4
 04 08 2013  08 44  -20.9851 26038.7 -03472.8 -07.5966 26269.3
 04 08 2013  08 45  -20.9841 26038.5 -03472.6 -07.5964 26269.1
 04 08 2013  08 46  -20.9841 26038.4 -03472.6 -07.5963 26268.9
 04 08 2013  08 47  -20.9840 26039.1 -03472.8 -07.5967 26269.7
 04 08 2013  08 48  -20.9831 26039.6 -03473.1 -07.5971 26270.2
 04 08 2013  08 49  -20.9826 26040.5 -03473.7 -07.5981 26271.2
 04 08 2013  08 50  -20.9827 26040.5 -03473.8 -07.5984 26271.2
 04 08 2013  08 51  -20.9819 26041.2 -03474.1 -07.5987 26271.9
 04 08 2013  08 52  -20.9812 26042.3 -03474.6 -07.5996 26273.1
 04 08 2013  08 53  -20.9809 26042.6 -03474.9 -07.6002 26273.4
 04 08 2013  08 54  -20.9810 26042.3 -03475.0 -07.6004 26273.1
 04 08 2013  08 55  -20.9811 26042.4 -03474.9 -07.6001 26273.2
 04 08 2013  08 56  -20.9812 26043.1 -03475.1 -07.6004 26273.9
 04 08 2013  08 57  -20.9815 26043.6 -03475.5 -07.6012 26274.5
 04 08 2013  08 58  -20.9813 26043.8 -03475.6 -07.6013 26274.7
 04 08 2013  08 59  -20.9810 26043.8 -03475.6 -07.6013 26274.7
 04 08 2013  09 00  -20.9805 26044.0 -03475.6 -07.6012 26274.9
 04 08 2013  09 01  -20.9799 26044.1 -03475.6 -07.6012 26275.0
 04 08 2013  09 02  -20.9791 26044.4 -03475.7 -07.6013 26275.3
 04 08 2013  09 03  -20.9781 26044.6 -03475.6 -07.6012 26275.5
 04 08 2013  09 04  -20.9771 26044.8 -03475.7 -07.6013 26275.7
 04 08 2013  09 05  -20.9759 26044.8 -03475.7 -07.6012 26275.7
 04 08 2013  09 06  -20.9746 26045.0 -03475.7 -07.6012 26275.9
 04 08 2013  09 07  -20.9733 26044.8 -03475.5 -07.6008 26275.6
 04 08 2013  09 08  -20.9723 26044.6 -03475.4 -07.6006 26275.4
 04 08 2013  09 09  -20.9717 26044.4 -03475.3 -07.6006 26275.3
 04 08 2013  09 10  -20.9706 26044.2 -03475.2 -07.6004 26275.0
 04 08 2013  09 11  -20.9690 26044.2 -03475.2 -07.6003 26275.0
 04 08 2013  09 12  -20.9682 26044.1 -03475.1 -07.6002 26274.9
 04 08 2013  09 13  -20.9678 26044.1 -03475.3 -07.6005 26275.0
 04 08 2013  09 14  -20.9668 26044.4 -03475.5 -07.6009 26275.2
 04 08 2013  09 15  -20.9657 26044.7 -03475.8 -07.6014 26275.6
 04 08 2013  09 16  -20.9643 26044.9 -03476.0 -07.6018 26275.9
 04 08 2013  09 17  -20.9634 26045.0 -03476.2 -07.6023 26275.9
 04 08 2013  09 18  -20.9626 26045.0 -03476.4 -07.6026 26276.0
 04 08 2013  09 19  -20.9615 26045.5 -03476.7 -07.6031 26276.5
 04 08 2013  09 20  -20.9602 26046.1 -03476.9 -07.6036 26277.1
 04 08 2013  09 21  -20.9594 26046.5 -03477.2 -07.6040 26277.6
 04 08 2013  09 22  -20.9588 26046.8 -03477.4 -07.6044 26277.9
 04 08 2013  09 23  -20.9577 26046.9 -03477.5 -07.6046 26278.0
 04 08 2013  09 24  -20.9568 26047.3 -03477.8 -07.6050 26278.4
 04 08 2013  09 25  -20.9565 26047.4 -03477.9 -07.6053 26278.6
 04 08 2013  09 26  -20.9558 26047.5 -03478.0 -07.6055 26278.6
 04 08 2013  09 27  -20.9547 26047.6 -03478.1 -07.6057 26278.8
 04 08 2013  09 28  -20.9542 26047.8 -03478.3 -07.6059 26279.0
 04 08 2013  09 29  -20.9541 26047.7 -03478.4 -07.6062 26278.9
 04 08 2013  09 30  -20.9544 26047.3 -03478.3 -07.6062 26278.5
 04 08 2013  09 31  -20.9546 26047.3 -03478.5 -07.6065 26278.5
 04 08 2013  09 32  -20.9540 26047.6 -03478.7 -07.6070 26278.9
 04 08 2013  09 33  -20.9539 26047.8 -03479.0 -07.6076 26279.1
 04 08 2013  09 34  -20.9535 26048.2 -03479.4 -07.6083 26279.6
 04 08 2013  09 35  -20.9531 26048.3 -03479.6 -07.6087 26279.7
 04 08 2013  09 36  -20.9522 26048.6 -03479.9 -07.6092 26280.0
 04 08 2013  09 37  -20.9510 26049.0 -03480.2 -07.6097 26280.4
 04 08 2013  09 38  -20.9501 26049.1 -03480.4 -07.6101 26280.6
 04 08 2013  09 39  -20.9489 26049.4 -03480.6 -07.6106 26280.9
 04 08 2013  09 40  -20.9469 26049.9 -03480.9 -07.6110 26281.4
 04 08 2013  09 41  -20.9457 26050.3 -03481.2 -07.6115 26281.8
 04 08 2013  09 42  -20.9448 26050.8 -03481.5 -07.6122 26282.4
 04 08 2013  09 43  -20.9445 26050.8 -03481.8 -07.6128 26282.5
 04 08 2013  09 44  -20.9450 26050.8 -03482.0 -07.6132 26282.5
 04 08 2013  09 45  -20.9449 26050.8 -03482.2 -07.6135 26282.5
 04 08 2013  09 46  -20.9444 26050.7 -03482.2 -07.6135 26282.4
 04 08 2013  09 47  -20.9441 26050.4 -03482.2 -07.6136 26282.1
 04 08 2013  09 48  -20.9445 26050.2 -03482.2 -07.6137 26281.9
 04 08 2013  09 49  -20.9446 26049.8 -03482.2 -07.6139 26281.5
 04 08 2013  09 50  -20.9442 26049.6 -03482.3 -07.6140 26281.3
 04 08 2013  09 51  -20.9445 26048.8 -03482.1 -07.6140 26280.5
 04 08 2013  09 52  -20.9453 26047.8 -03481.8 -07.6136 26279.5
 04 08 2013  09 53  -20.9455 26047.2 -03481.8 -07.6137 26278.8
 04 08 2013  09 54  -20.9462 26046.7 -03481.8 -07.6140 26278.4
 04 08 2013  09 55  -20.9475 26045.7 -03481.8 -07.6141 26277.4
 04 08 2013  09 56  -20.9481 26045.2 -03481.9 -07.6145 26276.9
 04 08 2013  09 57  -20.9482 26044.8 -03482.0 -07.6148 26276.5
 04 08 2013  09 58  -20.9486 26044.6 -03482.2 -07.6153 26276.3
 04 08 2013  09 59  -20.9487 26044.3 -03482.3 -07.6157 26276.1
 04 08 2013  10 00  -20.9486 26044.2 -03482.5 -07.6161 26276.0
 04 08 2013  10 01  -20.9490 26043.9 -03482.7 -07.6166 26275.7
 04 08 2013  10 02  -20.9490 26043.8 -03482.9 -07.6172 26275.7
 04 08 2013  10 03  -20.9485 26043.8 -03483.2 -07.6176 26275.7
 04 08 2013  10 04  -20.9477 26043.8 -03483.3 -07.6181 26275.7
 04 08 2013  10 05  -20.9470 26044.0 -03483.7 -07.6188 26276.0
 04 08 2013  10 06  -20.9468 26043.9 -03484.0 -07.6194 26275.9
 04 08 2013  10 07  -20.9470 26043.9 -03484.3 -07.6200 26275.9
 04 08 2013  10 08  -20.9468 26044.0 -03484.6 -07.6208 26276.1
 04 08 2013  10 09  -20.9465 26044.3 -03485.0 -07.6215 26276.4
 04 08 2013  10 10  -20.9467 26044.5 -03485.4 -07.6222 26276.7
 04 08 2013  10 11  -20.9474 26044.5 -03485.6 -07.6228 26276.7
 04 08 2013  10 12  -20.9477 26044.5 -03485.9 -07.6233 26276.7
 04 08 2013  10 13  -20.9474 26044.5 -03486.1 -07.6237 26276.8
 04 08 2013  10 14  -20.9470 26044.5 -03486.2 -07.6240 26276.8
 04 08 2013  10 15  -20.9471 26044.4 -03486.3 -07.6244 26276.7
 04 08 2013  10 16  -20.9469 26044.3 -03486.4 -07.6246 26276.6
 04 08 2013  10 17  -20.9470 26043.9 -03486.5 -07.6247 26276.2
 04 08 2013  10 18  -20.9471 26043.7 -03486.6 -07.6251 26276.0
 04 08 2013  10 19  -20.9468 26043.6 -03486.7 -07.6253 26276.0
 04 08 2013  10 20  -20.9462 26043.5 -03486.8 -07.6256 26275.9
 04 08 2013  10 21  -20.9464 26043.3 -03486.9 -07.6259 26275.7
 04 08 2013  10 22  -20.9473 26043.2 -03487.1 -07.6264 26275.6
 04 08 2013  10 23  -20.9473 26043.2 -03487.4 -07.6269 26275.7
 04 08 2013  10 24  -20.9467 26043.5 -03487.6 -07.6274 26275.9
 04 08 2013  10 25  -20.9469 26043.7 -03487.9 -07.6280 26276.2
 04 08 2013  10 26  -20.9470 26043.8 -03488.2 -07.6284 26276.4
 04 08 2013  10 27  -20.9470 26044.0 -03488.3 -07.6288 26276.5
 04 08 2013  10 28  -20.9470 26043.9 -03488.5 -07.6291 26276.5
 04 08 2013  10 29  -20.9472 26044.0 -03488.6 -07.6294 26276.6
 04 08 2013  10 30  -20.9472 26044.0 -03488.8 -07.6297 26276.6
 04 08 2013  10 31  -20.9472 26044.2 -03488.9 -07.6300 26276.8
 04 08 2013  10 32  -20.9473 26044.4 -03489.1 -07.6304 26277.1
 04 08 2013  10 33  -20.9481 26044.5 -03489.3 -07.6307 26277.2
 04 08 2013  10 34  -20.9487 26044.8 -03489.5 -07.6311 26277.5
 04 08 2013  10 35  -20.9486 26044.9 -03489.7 -07.6315 26277.6
 04 08 2013  10 36  -20.9490 26044.8 -03489.9 -07.6318 26277.6
 04 08 2013  10 37  -20.9497 26045.2 -03490.2 -07.6324 26278.0
 04 08 2013  10 38  -20.9499 26045.8 -03490.5 -07.6330 26278.7
 04 08 2013  10 39  -20.9498 26046.4 -03490.9 -07.6335 26279.3
 04 08 2013  10 40  -20.9498 26046.8 -03491.2 -07.6340 26279.7
 04 08 2013  10 41  -20.9503 26047.0 -03491.3 -07.6344 26279.9
 04 08 2013  10 42  -20.9509 26047.2 -03491.4 -07.6345 26280.1
 04 08 2013  10 43  -20.9511 26047.7 -03491.7 -07.6349 26280.7
 04 08 2013  10 44  -20.9516 26047.9 -03491.7 -07.6350 26280.9
 04 08 2013  10 45  -20.9528 26048.1 -03491.8 -07.6352 26281.1
 04 08 2013  10 46  -20.9537 26048.3 -03491.9 -07.6353 26281.3
 04 08 2013  10 47  -20.9545 26048.5 -03492.0 -07.6355 26281.5
 04 08 2013  10 48  -20.9547 26048.3 -03492.0 -07.6354 26281.4
 04 08 2013  10 49  -20.9554 26048.1 -03491.8 -07.6351 26281.1
 04 08 2013  10 50  -20.9554 26048.8 -03492.0 -07.6354 26281.8
 04 08 2013  10 51  -20.9571 26048.3 -03491.8 -07.6351 26281.3
 04 08 2013  10 52  -20.9583 26047.9 -03491.6 -07.6347 26280.8
 04 08 2013  10 53  -20.9592 26047.7 -03491.5 -07.6346 26280.7
 04 08 2013  10 54  -20.9605 26047.6 -03491.5 -07.6346 26280.5
 04 08 2013  10 55  -20.9618 26047.3 -03491.5 -07.6346 26280.3
 04 08 2013  10 56  -20.9624 26047.5 -03491.6 -07.6349 26280.5
 04 08 2013  10 57  -20.9632 26048.1 -03492.1 -07.6357 26281.2
 04 08 2013  10 58  -20.9648 26048.3 -03492.2 -07.6360 26281.4
 04 08 2013  10 59  -20.9647 26048.9 -03492.5 -07.6363 26282.0
 04 08 2013  11 00  -20.9647 26049.5 -03492.6 -07.6365 26282.6
 04 08 2013  11 01  -20.9653 26049.8 -03492.7 -07.6365 26282.9
 04 08 2013  11 02  -20.9657 26050.4 -03492.8 -07.6365 26283.5
 04 08 2013  11 03  -20.9659 26050.6 -03492.7 -07.6363 26283.7
 04 08 2013  11 04  -20.9672 26050.0 -03492.3 -07.6356 26283.0
 04 08 2013  11 05  -20.9686 26049.4 -03491.9 -07.6350 26282.4
 04 08 2013  11 06  -20.9693 26048.9 -03491.6 -07.6344 26281.9
 04 08 2013  11 07  -20.9706 26048.4 -03491.3 -07.6339 26281.3
 04 08 2013  11 08  -20.9717 26048.0 -03491.1 -07.6336 26281.0
 04 08 2013  11 09  -20.9730 26048.1 -03491.2 -07.6338 26281.1
 04 08 2013  11 10  -20.9749 26047.8 -03491.2 -07.6338 26280.7
 04 08 2013  11 11  -20.9763 26047.7 -03491.2 -07.6339 26280.6
 04 08 2013  11 12  -20.9773 26047.9 -03491.4 -07.6342 26280.8
 04 08 2013  11 13  -20.9781 26047.9 -03491.4 -07.6343 26280.9
 04 08 2013  11 14  -20.9784 26048.6 -03491.6 -07.6345 26281.5
 04 08 2013  11 15  -20.9788 26049.0 -03491.6 -07.6344 26281.9
 04 08 2013  11 16  -20.9797 26049.1 -03491.5 -07.6341 26282.1
 04 08 2013  11 17  -20.9794 26050.1 -03491.7 -07.6343 26283.1
 04 08 2013  11 18  -20.9803 26050.6 -03491.8 -07.6343 26283.6
 04 08 2013  11 19  -20.9823 26050.8 -03491.6 -07.6340 26283.7
 04 08 2013  11 20  -20.9838 26051.1 -03491.5 -07.6337 26284.0
 04 08 2013  11 21  -20.9845 26051.5 -03491.4 -07.6333 26284.5
 04 08 2013  11 22  -20.9852 26051.7 -03491.2 -07.6328 26284.6
 04 08 2013  11 23  -20.9857 26051.8 -03491.0 -07.6322 26284.7
 04 08 2013  11 24  -20.9864 26051.9 -03490.8 -07.6318 26284.7
 04 08 2013  11 25  -20.9868 26052.4 -03490.7 -07.6315 26285.2
 04 08 2013  11 26  -20.9875 26052.7 -03490.5 -07.6310 26285.5
 04 08 2013  11 27  -20.9889 26052.2 -03490.1 -07.6302 26285.0
 04 08 2013  11 28  -20.9897 26052.2 -03490.0 -07.6300 26284.9
 04 08 2013  11 29  -20.9909 26052.3 -03490.0 -07.6300 26285.1
 04 08 2013  11 30  -20.9915 26052.9 -03490.1 -07.6300 26285.6
 04 08 2013  11 31  -20.9918 26053.6 -03490.2 -07.6300 26286.4
 04 08 2013  11 32  -20.9923 26054.2 -03490.0 -07.6295 26286.9
 04 08 2013  11 33  -20.9932 26054.6 -03489.8 -07.6290 26287.3
 04 08 2013  11 34  -20.9941 26054.7 -03489.5 -07.6282 26287.3
 04 08 2013  11 35  -20.9974 26053.0 -03488.1 -07.6257 26285.5
 04 08 2013  11 36  -20.9984 26051.6 -03487.0 -07.6237 26284.0
 04 08 2013  11 37  -20.9992 26050.0 -03486.1 -07.6222 26282.2
 04 08 2013  11 38  -21.0002 26048.2 -03485.5 -07.6213 26280.3
 04 08 2013  11 39  -21.0028 26046.6 -03485.2 -07.6212 26278.7
 04 08 2013  11 40  -21.0055 26045.9 -03485.2 -07.6216 26278.0
 04 08 2013  11 41  -21.0075 26045.9 -03485.5 -07.6221 26278.1
 04 08 2013  11 42  -21.0086 26046.4 -03485.8 -07.6225 26278.6
 04 08 2013  11 43  -21.0094 26047.5 -03486.1 -07.6230 26279.7
 04 08 2013  11 44  -21.0098 26048.4 -03486.2 -07.6229 26280.6
 04 08 2013  11 45  -21.0099 26048.6 -03485.9 -07.6223 26280.8
 04 08 2013  11 46  -21.0101 26048.7 -03485.7 -07.6216 26280.9
 04 08 2013  11 47  -21.0102 26049.3 -03485.7 -07.6215 26281.5
 04 08 2013  11 48  -21.0113 26049.4 -03485.5 -07.6211 26281.5
 04 08 2013  11 49  -21.0125 26050.0 -03485.6 -07.6211 26282.2
 04 08 2013  11 50  -21.0137 26050.7 -03485.5 -07.6208 26282.9
 04 08 2013  11 51  -21.0137 26051.5 -03485.4 -07.6203 26283.7
 04 08 2013  11 52  -21.0130 26052.7 -03485.3 -07.6197 26284.8
 04 08 2013  11 53  -21.0126 26053.5 -03485.1 -07.6190 26285.5
 04 08 2013  11 54  -21.0125 26053.5 -03484.4 -07.6176 26285.4
 04 08 2013  11 55  -21.0123 26053.5 -03483.9 -07.6164 26285.4
 04 08 2013  11 56  -21.0126 26053.5 -03483.4 -07.6154 26285.4
 04 08 2013  11 57  -21.0126 26053.4 -03483.0 -07.6146 26285.2
 04 08 2013  11 58  -21.0129 26053.2 -03482.6 -07.6137 26284.9
 04 08 2013  11 59  -21.0134 26052.8 -03482.2 -07.6130 26284.5
 04 08 2013  12 00  -21.0143 26052.5 -03482.0 -07.6126 26284.1
 04 08 2013  12 01  -21.0152 26052.3 -03481.8 -07.6122 26284.0
 04 08 2013  12 02  -21.0158 26052.4 -03481.7 -07.6120 26284.1
 04 08 2013  12 03  -21.0165 26052.5 -03481.6 -07.6118 26284.1
 04 08 2013  12 04  -21.0177 26052.5 -03481.4 -07.6114 26284.1
 04 08 2013  12 05  -21.0179 26052.6 -03481.2 -07.6109 26284.2
 04 08 2013  12 06  -21.0178 26052.9 -03481.1 -07.6105 26284.5
 04 08 2013  12 07  -21.0176 26053.2 -03480.9 -07.6101 26284.7
 04 08 2013  12 08  -21.0184 26053.0 -03480.6 -07.6094 26284.4
 04 08 2013  12 09  -21.0181 26052.7 -03480.2 -07.6088 26284.2
 04 08 2013  12 10  -21.0174 26052.9 -03480.1 -07.6084 26284.3
 04 08 2013  12 11  -21.0174 26053.0 -03480.0 -07.6082 26284.4
 04 08 2013  12 12  -21.0178 26052.9 -03479.9 -07.6079 26284.3
 04 08 2013  12 13  -21.0177 26053.1 -03479.8 -07.6078 26284.5
 04 08 2013  12 14  -21.0181 26053.3 -03479.8 -07.6076 26284.6
 04 08 2013  12 15  -21.0175 26053.9 -03479.9 -07.6077 26285.3
 04 08 2013  12 16  -21.0172 26054.8 -03480.1 -07.6078 26286.2
 04 08 2013  12 17  -21.0177 26054.7 -03479.8 -07.6073 26286.1
 04 08 2013  12 18  -21.0183 26054.7 -03479.6 -07.6069 26286.0
 04 08 2013  12 19  -21.0187 26055.2 -03479.7 -07.6068 26286.5
 04 08 2013  12 20  -21.0194 26055.4 -03479.5 -07.6065 26286.7
 04 08 2013  12 21  -21.0200 26055.3 -03479.3 -07.6060 26286.6
 04 08 2013  12 22  -21.0203 26055.2 -03479.1 -07.6056 26286.4
 04 08 2013  12 23  -21.0206 26055.3 -03479.0 -07.6054 26286.6
 04 08 2013  12 24  -21.0209 26055.5 -03478.9 -07.6050 26286.7
 04 08 2013  12 25  -21.0213 26055.3 -03478.7 -07.6047 26286.5
 04 08 2013  12 26  -21.0221 26054.9 -03478.5 -07.6043 26286.1
 04 08 2013  12 27  -21.0224 26054.4 -03478.2 -07.6039 26285.6
 04 08 2013  12 28  -21.0224 26054.3 -03478.2 -07.6040 26285.5
 04 08 2013  12 29  -21.0223 26054.6 -03478.4 -07.6043 26285.8
 04 08 2013  12 30  -21.0222 26054.9 -03478.6 -07.6046 26286.1
 04 08 2013  12 31  -21.0223 26055.1 -03478.7 -07.6048 26286.3
 04 08 2013  12 32  -21.0230 26055.2 -03478.8 -07.6049 26286.4
 04 08 2013  12 33  -21.0239 26055.5 -03478.9 -07.6051 26286.7
 04 08 2013  12 34  -21.0246 26056.0 -03479.1 -07.6053 26287.3
 04 08 2013  12 35  -21.0254 26056.6 -03479.2 -07.6053 26287.8
 04 08 2013  12 36  -21.0261 26057.1 -03479.2 -07.6052 26288.3
 04 08 2013  12 37  -21.0266 26057.5 -03479.1 -07.6049 26288.7
 04 08 2013  12 38  -21.0274 26057.6 -03478.9 -07.6045 26288.8
 04 08 2013  12 39  -21.0282 26057.5 -03478.7 -07.6041 26288.7
 04 08 2013  12 40  -21.0290 26058.0 -03478.8 -07.6041 26289.2
 04 08 2013  12 41  -21.0296 26058.2 -03478.7 -07.6038 26289.4
 04 08 2013  12 42  -21.0303 26057.9 -03478.3 -07.6030 26289.0
 04 08 2013  12 43  -21.0304 26057.3 -03477.9 -07.6024 26288.3
 04 08 2013  12 44  -21.0307 26057.2 -03477.8 -07.6022 26288.3
 04 08 2013  12 45  -21.0315 26056.8 -03477.6 -07.6020 26287.9
 04 08 2013  12 46  -21.0321 26057.1 -03477.8 -07.6022 26288.1
 04 08 2013  12 47  -21.0325 26057.4 -03477.9 -07.6023 26288.4
 04 08 2013  12 48  -21.0329 26057.8 -03478.0 -07.6024 26288.9
 04 08 2013  12 49  -21.0333 26057.9 -03478.0 -07.6023 26289.0
 04 08 2013  12 50  -21.0337 26058.2 -03478.0 -07.6024 26289.3
 04 08 2013  12 51  -21.0342 26058.3 -03478.0 -07.6023 26289.3
 04 08 2013  12 52  -21.0348 26058.4 -03478.0 -07.6024 26289.5
 04 08 2013  12 53  -21.0353 26058.7 -03478.2 -07.6025 26289.8
 04 08 2013  12 54  -21.0358 26058.9 -03478.2 -07.6026 26290.0
 04 08 2013  12 55  -21.0362 26059.3 -03478.3 -07.6026 26290.4
 04 08 2013  12 56  -21.0370 26059.6 -03478.4 -07.6027 26290.7
 04 08 2013  12 57  -21.0376 26060.1 -03478.5 -07.6028 26291.2
 04 08 2013  12 58  -21.0380 26060.6 -03478.5 -07.6028 26291.7
 04 08 2013  12 59  -21.0385 26061.1 -03478.6 -07.6027 26292.2
 04 08 2013  13 00  -21.0390 26061.1 -03478.4 -07.6023 26292.2
 04 08 2013  13 01  -21.0392 26061.1 -03478.2 -07.6020 26292.2
 04 08 2013  13 02  -21.0391 26061.2 -03478.1 -07.6017 26292.3
 04 08 2013  13 03  -21.0391 26061.5 -03478.1 -07.6015 26292.5
 04 08 2013  13 04  -21.0393 26061.7 -03478.0 -07.6013 26292.7
 04 08 2013  13 05  -21.0394 26061.7 -03477.9 -07.6011 26292.8
 04 08 2013  13 06  -21.0390 26061.8 -03477.8 -07.6008 26292.8
 04 08 2013  13 07  -21.0385 26062.3 -03478.0 -07.6011 26293.4
 04 08 2013  13 08  -21.0381 26063.9 -03478.5 -07.6019 26295.0
 04 08 2013  13 09  -21.0389 26064.1 -03478.4 -07.6016 26295.2
 04 08 2013  13 10  -21.0396 26063.8 -03477.9 -07.6006 26294.9
 04 08 2013  13 11  -21.0380 26063.5 -03477.6 -07.6000 26294.5
 04 08 2013  13 12  -21.0369 26064.7 -03478.1 -07.6007 26295.7
 04 08 2013  13 13  -21.0375 26065.5 -03478.5 -07.6013 26296.6
 04 08 2013  13 14  -21.0389 26066.4 -03478.7 -07.6016 26297.5
 04 08 2013  13 15  -21.0395 26066.8 -03478.6 -07.6011 26297.9
 04 08 2013  13 16  -21.0397 26067.1 -03478.3 -07.6004 26298.2
 04 08 2013  13 17  -21.0404 26066.3 -03477.6 -07.5990 26297.3
 04 08 2013  13 18  -21.0402 26065.4 -03476.9 -07.5979 26296.3
 04 08 2013  13 19  -21.0393 26065.5 -03476.9 -07.5979 26296.3
 04 08 2013  13 20  -21.0384 26066.0 -03477.3 -07.5985 26296.9
 04 08 2013  13 21  -21.0372 26066.8 -03477.8 -07.5995 26297.8
 04 08 2013  13 22  -21.0363 26068.8 -03478.9 -07.6012 26299.9
 04 08 2013  13 23  -21.0370 26070.3 -03479.4 -07.6019 26301.4
 04 08 2013  13 24  -21.0377 26070.2 -03479.0 -07.6010 26301.3
 04 08 2013  13 25  -21.0370 26069.7 -03478.4 -07.5999 26300.8
 04 08 2013  13 26  -21.0358 26069.6 -03478.2 -07.5995 26300.6
 04 08 2013  13 27  -21.0356 26069.6 -03478.1 -07.5994 26300.6
 04 08 2013  13 28  -21.0359 26069.7 -03478.2 -07.5995 26300.7
 04 08 2013  13 29  -21.0360 26069.3 -03478.0 -07.5992 26300.3
 04 08 2013  13 30  -21.0357 26069.2 -03478.0 -07.5992 26300.2
 04 08 2013  13 31  -21.0357 26069.8 -03478.3 -07.5996 26300.8
 04 08 2013  13 32  -21.0365 26070.2 -03478.4 -07.5997 26301.2
 04 08 2013  13 33  -21.0369 26069.8 -03478.1 -07.5992 26300.7
 04 08 2013  13 34  -21.0368 26069.4 -03477.9 -07.5988 26300.3
 04 08 2013  13 35  -21.0365 26069.2 -03477.8 -07.5987 26300.2
 04 08 2013  13 36  -21.0364 26069.3 -03477.8 -07.5987 26300.2
 04 08 2013  13 37  -21.0366 26069.2 -03477.8 -07.5987 26300.1
 04 08 2013  13 38  -21.0370 26069.1 -03477.7 -07.5986 26300.1
 04 08 2013  13 39  -21.0372 26069.1 -03477.7 -07.5985 26300.0
 04 08 2013  13 40  -21.0375 26068.8 -03477.5 -07.5982 26299.7
 04 08 2013  13 41  -21.0376 26068.2 -03477.3 -07.5979 26299.1
 04 08 2013  13 42  -21.0380 26068.0 -03477.3 -07.5979 26298.9
 04 08 2013  13 43  -21.0381 26067.6 -03477.3 -07.5980 26298.5
 04 08 2013  13 44  -21.0382 26067.1 -03477.2 -07.5980 26298.0
 04 08 2013  13 45  -21.0385 26067.0 -03477.3 -07.5984 26297.9
 04 08 2013  13 46  -21.0394 26067.0 -03477.6 -07.5989 26297.9
 04 08 2013  13 47  -21.0406 26067.1 -03477.8 -07.5994 26298.1
 04 08 2013  13 48  -21.0420 26067.2 -03478.0 -07.5997 26298.2
 04 08 2013  13 49  -21.0433 26067.0 -03478.0 -07.5998 26298.0
 04 08 2013  13 50  -21.0443 26066.7 -03478.0 -07.5999 26297.7
 04 08 2013  13 51  -21.0450 26066.5 -03478.0 -07.6000 26297.5
 04 08 2013  13 52  -21.0454 26066.4 -03478.1 -07.6002 26297.4
 04 08 2013  13 53  -21.0459 26066.6 -03478.3 -07.6005 26297.6
 04 08 2013  13 54  -21.0467 26066.6 -03478.4 -07.6007 26297.7
 04 08 2013  13 55  -21.0478 26066.8 -03478.5 -07.6010 26297.9
 04 08 2013  13 56  -21.0488 26066.8 -03478.6 -07.6011 26297.9
 04 08 2013  13 57  -21.0494 26066.8 -03478.6 -07.6011 26297.9
 04 08 2013  13 58  -21.0501 26066.7 -03478.6 -07.6011 26297.8
 04 08 2013  13 59  -21.0507 26066.7 -03478.6 -07.6012 26297.7
 04 08 2013  14 00  -21.0516 26066.7 -03478.7 -07.6014 26297.8
 04 08 2013  14 01  -21.0527 26066.6 -03478.7 -07.6014 26297.7
 04 08 2013  14 02  -21.0537 26066.3 -03478.6 -07.6014 26297.4
 04 08 2013  14 03  -21.0545 26066.2 -03478.6 -07.6015 26297.3
 04 08 2013  14 04  -21.0550 26066.2 -03478.7 -07.6016 26297.3
 04 08 2013  14 05  -21.0553 26066.0 -03478.7 -07.6016 26297.1
 04 08 2013  14 06  -21.0557 26066.1 -03478.7 -07.6017 26297.2
 04 08 2013  14 07  -21.0563 26066.2 -03478.8 -07.6017 26297.3
 04 08 2013  14 08  -21.0568 26066.2 -03478.8 -07.6017 26297.3
 04 08 2013  14 09  -21.0571 26066.3 -03478.8 -07.6017 26297.4
 04 08 2013  14 10  -21.0575 26066.4 -03478.8 -07.6017 26297.5
 04 08 2013  14 11  -21.0578 26066.5 -03478.8 -07.6017 26297.6
 04 08 2013  14 12  -21.0580 26066.5 -03478.9 -07.6018 26297.7
 04 08 2013  14 13  -21.0579 26066.8 -03478.9 -07.6019 26297.9
 04 08 2013  14 14  -21.0579 26067.2 -03479.1 -07.6021 26298.3
 04 08 2013  14 15  -21.0580 26067.5 -03479.1 -07.6021 26298.6
 04 08 2013  14 16  -21.0579 26067.8 -03479.2 -07.6021 26299.0
 04 08 2013  14 17  -21.0578 26068.0 -03479.2 -07.6021 26299.2
 04 08 2013  14 18  -21.0577 26068.3 -03479.2 -07.6021 26299.5
 04 08 2013  14 19  -21.0573 26068.6 -03479.2 -07.6020 26299.8
 04 08 2013  14 20  -21.0573 26068.9 -03479.3 -07.6021 26300.1
 04 08 2013  14 21  -21.0571 26069.4 -03479.3 -07.6020 26300.5
 04 08 2013  14 22  -21.0567 26069.7 -03479.4 -07.6020 26300.9
 04 08 2013  14 23  -21.0565 26070.0 -03479.3 -07.6018 26301.2
 04 08 2013  14 24  -21.0561 26070.3 -03479.3 -07.6017 26301.5
 04 08 2013  14 25  -21.0554 26070.5 -03479.3 -07.6015 26301.7
 04 08 2013  14 26  -21.0547 26070.8 -03479.2 -07.6014 26301.9
 04 08 2013  14 27  -21.0542 26071.2 -03479.3 -07.6014 26302.4
 04 08 2013  14 28  -21.0541 26071.6 -03479.4 -07.6016 26302.8
 04 08 2013  14 29  -21.0544 26072.3 -03479.6 -07.6018 26303.4
 04 08 2013  14 30  -21.0546 26073.1 -03479.9 -07.6021 26304.3
 04 08 2013  14 31  -21.0549 26073.9 -03480.0 -07.6021 26305.1
 04 08 2013  14 32  -21.0553 26074.6 -03480.0 -07.6019 26305.8
 04 08 2013  14 33  -21.0561 26075.3 -03480.0 -07.6017 26306.5
 04 08 2013  14 34  -21.0568 26075.8 -03479.9 -07.6015 26306.9
 04 08 2013  14 35  -21.0575 26075.9 -03479.8 -07.6010 26307.1
 04 08 2013  14 36  -21.0580 26076.0 -03479.5 -07.6005 26307.1
 04 08 2013  14 37  -21.0579 26076.2 -03479.4 -07.6002 26307.3
 04 08 2013  14 38  -21.0571 26076.5 -03479.3 -07.5999 26307.6
 04 08 2013  14 39  -21.0569 26077.0 -03479.4 -07.6000 26308.1
 04 08 2013  14 40  -21.0580 26077.2 -03479.5 -07.6000 26308.4
 04 08 2013  14 41  -21.0591 26077.3 -03479.4 -07.5999 26308.4
 04 08 2013  14 42  -21.0597 26077.8 -03479.5 -07.5999 26308.9
 04 08 2013  14 43  -21.0604 26078.3 -03479.5 -07.5999 26309.5
 04 08 2013  14 44  -21.0607 26078.9 -03479.6 -07.5998 26310.0
 04 08 2013  14 45  -21.0618 26079.6 -03479.7 -07.5999 26310.7
 04 08 2013  14 46  -21.0629 26080.0 -03479.7 -07.5997 26311.1
 04 08 2013  14 47  -21.0647 26080.4 -03479.6 -07.5994 26311.5
 04 08 2013  14 48  -21.0663 26079.7 -03478.9 -07.5981 26310.7
 04 08 2013  14 49  -21.0667 26078.5 -03478.1 -07.5966 26309.4
 04 08 2013  14 50  -21.0668 26077.6 -03477.5 -07.5957 26308.5
 04 08 2013  14 51  -21.0665 26077.3 -03477.4 -07.5955 26308.1
 04 08 2013  14 52  -21.0672 26077.2 -03477.4 -07.5956 26308.1
 04 08 2013  14 53  -21.0678 26077.2 -03477.4 -07.5955 26308.0
 04 08 2013  14 54  -21.0683 26077.5 -03477.5 -07.5957 26308.4
 04 08 2013  14 55  -21.0686 26077.8 -03477.6 -07.5958 26308.7
 04 08 2013  14 56  -21.0689 26078.6 -03477.9 -07.5963 26309.5
 04 08 2013  14 57  -21.0692 26079.6 -03478.3 -07.5968 26310.5
 04 08 2013  14 58  -21.0701 26080.3 -03478.6 -07.5973 26311.3
 04 08 2013  14 59  -21.0708 26080.6 -03478.6 -07.5972 26311.6
 04 08 2013  15 00  -21.0708 26080.9 -03478.6 -07.5971 26311.9
 04 08 2013  15 01  -21.0709 26080.8 -03478.5 -07.5968 26311.7
 04 08 2013  15 02  -21.0707 26080.3 -03478.3 -07.5966 26311.3
 04 08 2013  15 03  -21.0708 26079.9 -03478.3 -07.5966 26310.8
 04 08 2013  15 04  -21.0705 26079.2 -03478.1 -07.5965 26310.1
 04 08 2013  15 05  -21.0702 26078.7 -03478.1 -07.5967 26309.6
 04 08 2013  15 06  -21.0702 26078.6 -03478.3 -07.5971 26309.5
 04 08 2013  15 07  -21.0704 26078.3 -03478.4 -07.5974 26309.3
 04 08 2013  15 08  -21.0708 26078.0 -03478.5 -07.5976 26309.0
 04 08 2013  15 09  -21.0711 26077.5 -03478.4 -07.5976 26308.4
 04 08 2013  15 10  -21.0712 26076.9 -03478.3 -07.5977 26307.9
 04 08 2013  15 11  -21.0710 26076.8 -03478.5 -07.5980 26307.8
 04 08 2013  15 12  -21.0707 26076.9 -03478.7 -07.5985 26307.9
 04 08 2013  15 13  -21.0706 26076.7 -03478.9 -07.5989 26307.8
 04 08 2013  15 14  -21.0707 26077.0 -03479.3 -07.5997 26308.1
 04 08 2013  15 15  -21.0701 26077.5 -03479.7 -07.6004 26308.6
 04 08 2013  15 16  -21.0694 26078.6 -03480.4 -07.6016 26309.8
 04 08 2013  15 17  -21.0694 26080.0 -03481.2 -07.6029 26311.3
 04 08 2013  15 18  -21.0697 26081.7 -03481.9 -07.6040 26313.1
 04 08 2013  15 19  -21.0700 26083.5 -03482.4 -07.6047 26314.9
 04 08 2013  15 20  -21.0706 26085.2 -03482.8 -07.6049 26316.6
 04 08 2013  15 21  -21.0707 26086.0 -03482.7 -07.6044 26317.5
 04 08 2013  15 22  -21.0706 26086.3 -03482.4 -07.6037 26317.7
 04 08 2013  15 23  -21.0701 26085.7 -03481.8 -07.6026 26317.1
 04 08 2013  15 24  -21.0696 26084.6 -03481.1 -07.6014 26315.8
 04 08 2013  15 25  -21.0686 26083.6 -03480.6 -07.6007 26314.8
 04 08 2013  15 26  -21.0689 26083.8 -03480.8 -07.6011 26315.0
 04 08 2013  15 27  -21.0706 26084.5 -03481.0 -07.6013 26315.8
 04 08 2013  15 28  -21.0716 26084.5 -03480.7 -07.6005 26315.7
 04 08 2013  15 29  -21.0724 26084.9 -03480.5 -07.6001 26316.1
 04 08 2013  15 30  -21.0734 26086.4 -03480.9 -07.6004 26317.6
 04 08 2013  15 31  -21.0744 26088.4 -03481.2 -07.6006 26319.6
 04 08 2013  15 32  -21.0754 26090.2 -03481.4 -07.6004 26321.4
 04 08 2013  15 33  -21.0771 26091.6 -03481.3 -07.5998 26322.8
 04 08 2013  15 34  -21.0785 26091.9 -03480.7 -07.5984 26323.0
 04 08 2013  15 35  -21.0791 26092.0 -03480.1 -07.5971 26323.1
 04 08 2013  15 36  -21.0803 26092.8 -03479.9 -07.5965 26323.8
 04 08 2013  15 37  -21.0821 26093.9 -03479.9 -07.5962 26325.0
 04 08 2013  15 38  -21.0833 26094.7 -03479.6 -07.5953 26325.7
 04 08 2013  15 39  -21.0846 26094.8 -03479.1 -07.5942 26325.8
 04 08 2013  15 40  -21.0858 26094.9 -03478.7 -07.5933 26325.8
 04 08 2013  15 41  -21.0866 26095.5 -03478.5 -07.5928 26326.3
 04 08 2013  15 42  -21.0880 26095.9 -03478.4 -07.5924 26326.7
 04 08 2013  15 43  -21.0891 26097.6 -03478.8 -07.5928 26328.4
 04 08 2013  15 44  -21.0910 26100.6 -03479.5 -07.5934 26331.5
 04 08 2013  15 45  -21.0930 26101.7 -03479.2 -07.5923 26332.5
 04 08 2013  15 46  -21.0938 26100.7 -03477.9 -07.5899 26331.4
 04 08 2013  15 47  -21.0946 26099.8 -03477.0 -07.5881 26330.4
 04 08 2013  15 48  -21.0955 26099.2 -03476.4 -07.5872 26329.7
 04 08 2013  15 49  -21.0973 26100.1 -03476.7 -07.5875 26330.6
 04 08 2013  15 50  -21.0973 26100.2 -03476.4 -07.5869 26330.7
 04 08 2013  15 51  -21.0986 26101.4 -03476.7 -07.5870 26331.9
 04 08 2013  15 52  -21.0999 26101.8 -03476.4 -07.5864 26332.3
 04 08 2013  15 53  -21.0998 26101.3 -03475.7 -07.5850 26331.7
 04 08 2013  15 54  -21.1013 26101.6 -03475.6 -07.5846 26332.0
 04 08 2013  15 55  -21.1016 26100.8 -03474.9 -07.5834 26331.0
 04 08 2013  15 56  -21.1022 26100.3 -03474.5 -07.5826 26330.6
 04 08 2013  15 57  -21.1027 26099.8 -03474.0 -07.5818 26330.0
 04 08 2013  15 58  -21.1038 26099.5 -03473.8 -07.5814 26329.7
 04 08 2013  15 59  -21.1044 26099.2 -03473.6 -07.5809 26329.4
 04 08 2013  16 00  -21.1049 26099.1 -03473.2 -07.5803 26329.2
 04 08 2013  16 01  -21.1060 26098.8 -03472.8 -07.5795 26328.9
 04 08 2013  16 02  -21.1069 26098.1 -03472.4 -07.5787 26328.1
 04 08 2013  16 03  -21.1084 26097.3 -03471.9 -07.5780 26327.2
 04 08 2013  16 04  -21.1091 26096.3 -03471.3 -07.5770 26326.2
 04 08 2013  16 05  -21.1099 26095.6 -03471.0 -07.5764 26325.4
 04 08 2013  16 06  -21.1106 26094.4 -03470.4 -07.5755 26324.2
 04 08 2013  16 07  -21.1106 26093.8 -03470.1 -07.5751 26323.5
 04 08 2013  16 08  -21.1111 26093.6 -03470.2 -07.5753 26323.4
 04 08 2013  16 09  -21.1120 26093.9 -03470.3 -07.5755 26323.7
 04 08 2013  16 10  -21.1122 26093.9 -03470.2 -07.5752 26323.7
 04 08 2013  16 11  -21.1123 26093.1 -03469.6 -07.5742 26322.8
 04 08 2013  16 12  -21.1134 26093.2 -03469.5 -07.5739 26322.8
 04 08 2013  16 13  -21.1152 26092.9 -03469.1 -07.5733 26322.5
 04 08 2013  16 14  -21.1153 26091.7 -03468.3 -07.5719 26321.2
 04 08 2013  16 15  -21.1152 26089.7 -03467.3 -07.5702 26319.1
 04 08 2013  16 16  -21.1151 26088.2 -03466.7 -07.5694 26317.5
 04 08 2013  16 17  -21.1146 26086.9 -03466.4 -07.5690 26316.2
 04 08 2013  16 18  -21.1146 26085.8 -03466.2 -07.5689 26315.1
 04 08 2013  16 19  -21.1151 26084.9 -03466.1 -07.5689 26314.2
 04 08 2013  16 20  -21.1151 26084.0 -03465.9 -07.5689 26313.3
 04 08 2013  16 21  -21.1152 26083.1 -03465.8 -07.5688 26312.4
 04 08 2013  16 22  -21.1156 26081.5 -03465.3 -07.5681 26310.7
 04 08 2013  16 23  -21.1145 26079.0 -03464.5 -07.5673 26308.1
 04 08 2013  16 24  -21.1116 26076.5 -03464.1 -07.5671 26305.5
 04 08 2013  16 25  -21.1098 26074.2 -03464.0 -07.5675 26303.3
 04 08 2013  16 26  -21.1089 26072.5 -03464.2 -07.5684 26301.7
 04 08 2013  16 27  -21.1080 26071.8 -03464.8 -07.5700 26301.1
 04 08 2013  16 28  -21.1074 26071.7 -03465.6 -07.5716 26301.0
 04 08 2013  16 29  -21.1069 26071.4 -03466.1 -07.5727 26300.8
 04 08 2013  16 30  -21.1057 26071.2 -03466.4 -07.5736 26300.6
 04 08 2013  16 31  -21.1048 26071.5 -03466.9 -07.5745 26301.0
 04 08 2013  16 32  -21.1052 26072.8 -03467.6 -07.5756 26302.4
 04 08 2013  16 33  -21.1068 26074.3 -03468.1 -07.5764 26303.9
 04 08 2013  16 34  -21.1085 26075.8 -03468.4 -07.5765 26305.5
 04 08 2013  16 35  -21.1094 26076.5 -03468.1 -07.5756 26306.2
 04 08 2013  16 36  -21.1106 26078.1 -03468.1 -07.5752 26307.7
 04 08 2013  16 37  -21.1132 26078.4 -03467.5 -07.5739 26308.0
 04 08 2013  16 38  -21.1145 26078.6 -03466.9 -07.5724 26308.1
 04 08 2013  16 39  -21.1151 26079.0 -03466.4 -07.5714 26308.4
 04 08 2013  16 40  -21.1172 26079.1 -03466.0 -07.5704 26308.4
 04 08 2013  16 41  -21.1178 26078.1 -03465.1 -07.5687 26307.3
 04 08 2013  16 42  -21.1178 26077.3 -03464.2 -07.5671 26306.4
 04 08 2013  16 43  -21.1185 26077.0 -03463.8 -07.5662 26306.1
 04 08 2013  16 44  -21.1194 26075.5 -03462.8 -07.5645 26304.4
 04 08 2013  16 45  -21.1200 26075.1 -03462.3 -07.5635 26303.9
 04 08 2013  16 46  -21.1205 26075.2 -03462.0 -07.5629 26304.0
 04 08 2013  16 47  -21.1216 26074.7 -03461.6 -07.5622 26303.5
 04 08 2013  16 48  -21.1217 26074.8 -03461.3 -07.5614 26303.5
 04 08 2013  16 49  -21.1226 26075.3 -03461.1 -07.5610 26304.1
 04 08 2013  16 50  -21.1229 26076.1 -03461.1 -07.5608 26304.8
 04 08 2013  16 51  -21.1218 26077.7 -03461.4 -07.5609 26306.4
 04 08 2013  16 52  -21.1240 26078.8 -03461.3 -07.5604 26307.5
 04 08 2013  16 53  -21.1250 26075.2 -03458.9 -07.5563 26303.6
 04 08 2013  16 54  -21.1238 26075.1 -03458.7 -07.5557 26303.5
 04 08 2013  16 55  -21.1271 26074.6 -03458.6 -07.5557 26303.0
 04 08 2013  16 56  -21.1275 26072.3 -03457.2 -07.5534 26300.5
 04 08 2013  16 57  -21.1259 26069.0 -03455.7 -07.5511 26297.1
 04 08 2013  16 58  -21.1250 26066.7 -03455.1 -07.5504 26294.7
 04 08 2013  16 59  -21.1258 26065.3 -03455.0 -07.5507 26293.3
 04 08 2013  17 00  -21.1285 26065.5 -03455.2 -07.5511 26293.5
 04 08 2013  17 01  -21.1382 26058.3 -03451.9 -07.5459 26286.0
 04 08 2013  17 02  -21.1321 26046.3 -03446.5 -07.5378 26273.3
 04 08 2013  17 03  -21.1273 26037.3 -03444.6 -07.5361 26264.2
 04 08 2013  17 04  -21.1245 26030.5 -03444.4 -07.5378 26257.4
 04 08 2013  17 05  -21.1229 26025.9 -03445.4 -07.5411 26252.9
 04 08 2013  17 06  -21.1225 26023.6 -03447.2 -07.5457 26250.9
 04 08 2013  17 07  -21.1235 26023.2 -03449.3 -07.5505 26250.8
 04 08 2013  17 08  -21.1254 26023.4 -03451.1 -07.5542 26251.3
 04 08 2013  17 09  -21.1261 26023.8 -03452.4 -07.5568 26251.8
 04 08 2013  17 10  -21.1260 26024.3 -03453.3 -07.5587 26252.4
 04 08 2013  17 11  -21.1256 26025.2 -03454.3 -07.5605 26253.5
 04 08 2013  17 12  -21.1251 26026.2 -03455.0 -07.5618 26254.5
 04 08 2013  17 13  -21.1255 26026.6 -03455.3 -07.5623 26255.0
 04 08 2013  17 14  -21.1240 26026.8 -03455.2 -07.5622 26255.1
 04 08 2013  17 15  -21.1231 26027.4 -03455.5 -07.5626 26255.8
 04 08 2013  17 16  -21.1236 26028.0 -03455.7 -07.5629 26256.4
 04 08 2013  17 17  -21.1236 26028.1 -03455.5 -07.5625 26256.5
 04 08 2013  17 18  -21.1224 26028.0 -03455.2 -07.5618 26256.3
 04 08 2013  17 19  -21.1213 26027.4 -03454.8 -07.5611 26255.7
 04 08 2013  17 20  -21.1188 26026.5 -03454.2 -07.5600 26254.7
 04 08 2013  17 21  -21.1165 26026.0 -03454.1 -07.5599 26254.2
 04 08 2013  17 22  -21.1159 26025.6 -03454.1 -07.5601 26253.8
 04 08 2013  17 23  -21.1147 26024.4 -03453.9 -07.5600 26252.6
 04 08 2013  17 24  -21.1144 26025.3 -03454.5 -07.5610 26253.5
 04 08 2013  17 25  -21.1138 26025.8 -03454.8 -07.5616 26254.1
 04 08 2013  17 26  -21.1127 26024.4 -03454.1 -07.5605 26252.7
 04 08 2013  17 27  -21.1117 26023.7 -03453.8 -07.5600 26251.9
 04 08 2013  17 28  -21.1097 26024.1 -03454.0 -07.5603 26252.3
 04 08 2013  17 29  -21.1081 26024.5 -03454.4 -07.5611 26252.8
 04 08 2013  17 30  -21.1076 26023.5 -03454.0 -07.5604 26251.7
 04 08 2013  17 31  -21.1081 26021.7 -03453.2 -07.5593 26249.8
 04 08 2013  17 32  -21.1058 26020.5 -03452.7 -07.5584 26248.5
 04 08 2013  17 33  -21.1034 26019.9 -03452.9 -07.5591 26248.0
 04 08 2013  17 34  -21.1035 26019.4 -03453.3 -07.5601 26247.6
 04 08 2013  17 35  -21.1033 26018.5 -03453.2 -07.5600 26246.7
 04 08 2013  17 36  -21.1018 26017.0 -03452.7 -07.5595 26245.1
 04 08 2013  17 37  -21.1000 26015.3 -03452.3 -07.5592 26243.4
 04 08 2013  17 38  -21.0979 26013.2 -03451.9 -07.5589 26241.3
 04 08 2013  17 39  -21.0940 26011.0 -03451.6 -07.5588 26239.0
 04 08 2013  17 40  -21.0918 26009.7 -03452.0 -07.5602 26237.7
 04 08 2013  17 41  -21.0910 26008.9 -03452.8 -07.5620 26237.1
 04 08 2013  17 42  -21.0905 26008.2 -03453.3 -07.5633 26236.5
 04 08 2013  17 43  -21.0888 26007.6 -03453.7 -07.5643 26235.9
 04 08 2013  17 44  -21.0878 26007.5 -03454.3 -07.5656 26235.9
 04 08 2013  17 45  -21.0875 26007.8 -03455.0 -07.5671 26236.3
 04 08 2013  17 46  -21.0876 26008.5 -03455.7 -07.5683 26237.1
 04 08 2013  17 47  -21.0877 26009.3 -03456.1 -07.5691 26237.9
 04 08 2013  17 48  -21.0868 26009.8 -03456.2 -07.5692 26238.4
 04 08 2013  17 49  -21.0851 26010.3 -03456.4 -07.5694 26238.9
 04 08 2013  17 50  -21.0841 26010.9 -03456.6 -07.5697 26239.6
 04 08 2013  17 51  -21.0830 26011.5 -03456.8 -07.5699 26240.2
 04 08 2013  17 52  -21.0811 26012.2 -03457.0 -07.5701 26240.9
 04 08 2013  17 53  -21.0792 26013.0 -03457.3 -07.5706 26241.8
 04 08 2013  17 54  -21.0792 26014.5 -03457.9 -07.5715 26243.3
 04 08 2013  17 55  -21.0786 26015.7 -03458.2 -07.5719 26244.5
 04 08 2013  17 56  -21.0782 26016.9 -03458.4 -07.5719 26245.7
 04 08 2013  17 57  -21.0781 26018.0 -03458.5 -07.5717 26246.8
 04 08 2013  17 58  -21.0765 26018.7 -03458.3 -07.5712 26247.5
 04 08 2013  17 59  -21.0754 26019.6 -03458.3 -07.5710 26248.5
 04 08 2013  18 00  -21.0750 26020.7 -03458.6 -07.5711 26249.6
 04 08 2013  18 01  -21.0742 26021.4 -03458.6 -07.5709 26250.2
 04 08 2013  18 02  -21.0736 26021.8 -03458.5 -07.5707 26250.7
 04 08 2013  18 03  -21.0729 26022.1 -03458.4 -07.5703 26250.9
 04 08 2013  18 04  -21.0716 26022.3 -03458.3 -07.5700 26251.1
 04 08 2013  18 05  -21.0711 26022.4 -03458.2 -07.5699 26251.1
 04 08 2013  18 06  -21.0713 26021.9 -03458.0 -07.5695 26250.7
 04 08 2013  18 07  -21.0713 26021.8 -03457.7 -07.5689 26250.5
 04 08 2013  18 08  -21.0707 26020.7 -03457.1 -07.5680 26249.3
 04 08 2013  18 09  -21.0688 26019.1 -03456.5 -07.5672 26247.7
 04 08 2013  18 10  -21.0679 26018.3 -03456.6 -07.5677 26246.9
 04 08 2013  18 11  -21.0697 26018.0 -03457.0 -07.5684 26246.7
 04 08 2013  18 12  -21.0701 26017.5 -03456.8 -07.5682 26246.1
 04 08 2013  18 13  -21.0697 26017.0 -03456.8 -07.5683 26245.6
 04 08 2013  18 14  -21.0698 26016.7 -03456.9 -07.5688 26245.3
 04 08 2013  18 15  -21.0699 26016.5 -03457.2 -07.5694 26245.2
 04 08 2013  18 16  -21.0703 26016.1 -03457.4 -07.5700 26244.9
 04 08 2013  18 17  -21.0707 26016.0 -03457.6 -07.5704 26244.8
 04 08 2013  18 18  -21.0715 26016.6 -03458.0 -07.5711 26245.4
 04 08 2013  18 19  -21.0725 26017.4 -03458.4 -07.5718 26246.3
 04 08 2013  18 20  -21.0730 26017.6 -03458.5 -07.5719 26246.5
 04 08 2013  18 21  -21.0742 26017.9 -03458.6 -07.5719 26246.7
 04 08 2013  18 22  -21.0757 26018.6 -03458.8 -07.5721 26247.5
 04 08 2013  18 23  -21.0754 26018.5 -03458.5 -07.5716 26247.3
 04 08 2013  18 24  -21.0739 26018.2 -03458.3 -07.5713 26247.0
 04 08 2013  18 25  -21.0733 26018.7 -03458.8 -07.5721 26247.6
 04 08 2013  18 26  -21.0742 26019.8 -03459.5 -07.5733 26248.7
 04 08 2013  18 27  -21.0738 26019.9 -03459.6 -07.5735 26248.9
 04 08 2013  18 28  -21.0733 26020.0 -03459.6 -07.5736 26249.0
 04 08 2013  18 29  -21.0726 26019.7 -03459.6 -07.5737 26248.7
 04 08 2013  18 30  -21.0710 26018.7 -03459.4 -07.5735 26247.7
 04 08 2013  18 31  -21.0693 26017.5 -03459.2 -07.5734 26246.4
 04 08 2013  18 32  -21.0678 26016.3 -03459.2 -07.5738 26245.2
 04 08 2013  18 33  -21.0668 26015.0 -03459.3 -07.5745 26243.9
 04 08 2013  18 34  -21.0659 26013.7 -03459.4 -07.5750 26242.7
 04 08 2013  18 35  -21.0647 26012.2 -03459.4 -07.5754 26241.3
 04 08 2013  18 36  -21.0636 26010.5 -03459.3 -07.5757 26239.5
 04 08 2013  18 37  -21.0631 26009.0 -03459.3 -07.5761 26238.1
 04 08 2013  18 38  -21.0623 26008.5 -03459.7 -07.5770 26237.6
 04 08 2013  18 39  -21.0621 26008.9 -03460.4 -07.5785 26238.1
 04 08 2013  18 40  -21.0625 26009.8 -03461.2 -07.5800 26239.1
 04 08 2013  18 41  -21.0623 26010.3 -03461.6 -07.5807 26239.6
 04 08 2013  18 42  -21.0629 26011.3 -03462.1 -07.5815 26240.7
 04 08 2013  18 43  -21.0647 26012.5 -03462.6 -07.5822 26242.0
 04 08 2013  18 44  -21.0663 26013.2 -03462.6 -07.5821 26242.6
 04 08 2013  18 45  -21.0681 26014.0 -03462.6 -07.5818 26243.5
 04 08 2013  18 46  -21.0686 26014.7 -03462.5 -07.5813 26244.1
 04 08 2013  18 47  -21.0691 26015.0 -03462.3 -07.5808 26244.4
 04 08 2013  18 48  -21.0692 26014.9 -03461.9 -07.5800 26244.2
 04 08 2013  18 49  -21.0686 26014.4 -03461.4 -07.5791 26243.7
 04 08 2013  18 50  -21.0679 26014.0 -03461.1 -07.5785 26243.2
 04 08 2013  18 51  -21.0667 26013.3 -03460.7 -07.5779 26242.5
 04 08 2013  18 52  -21.0648 26012.7 -03460.5 -07.5775 26241.8
 04 08 2013  18 53  -21.0641 26012.4 -03460.5 -07.5778 26241.6
 04 08 2013  18 54  -21.0622 26011.5 -03460.3 -07.5775 26240.6
 04 08 2013  18 55  -21.0606 26010.3 -03460.0 -07.5773 26239.5
 04 08 2013  18 56  -21.0598 26009.7 -03460.0 -07.5774 26238.9
 04 08 2013  18 57  -21.0574 26009.1 -03459.9 -07.5773 26238.2
 04 08 2013  18 58  -21.0562 26008.6 -03460.0 -07.5778 26237.8
 04 08 2013  18 59  -21.0558 26008.7 -03460.5 -07.5787 26237.9
 04 08 2013  19 00  -21.0564 26009.0 -03460.8 -07.5793 26238.3
 04 08 2013  19 01  -21.0563 26009.1 -03460.9 -07.5795 26238.3
 04 08 2013  19 02  -21.0549 26008.0 -03460.6 -07.5791 26237.2
 04 08 2013  19 03  -21.0533 26006.7 -03460.4 -07.5792 26235.9
 04 08 2013  19 04  -21.0527 26006.0 -03460.7 -07.5800 26235.2
 04 08 2013  19 05  -21.0527 26005.9 -03461.2 -07.5811 26235.3
 04 08 2013  19 06  -21.0524 26005.9 -03461.5 -07.5818 26235.2
 04 08 2013  19 07  -21.0526 26006.2 -03462.0 -07.5828 26235.6
 04 08 2013  19 08  -21.0534 26006.6 -03462.5 -07.5836 26236.0
 04 08 2013  19 09  -21.0545 26006.9 -03462.7 -07.5840 26236.4
 04 08 2013  19 10  -21.0547 26006.6 -03462.6 -07.5840 26236.1
 04 08 2013  19 11  -21.0540 26006.1 -03462.5 -07.5838 26235.6
 04 08 2013  19 12  -21.0553 26006.9 -03463.0 -07.5848 26236.5
 04 08 2013  19 13  -21.0576 26007.9 -03463.5 -07.5855 26237.6
 04 08 2013  19 14  -21.0573 26007.2 -03463.0 -07.5845 26236.8
 04 08 2013  19 15  -21.0568 26006.5 -03462.6 -07.5839 26236.0
 04 08 2013  19 16  -21.0570 26006.1 -03462.5 -07.5839 26235.6
 04 08 2013  19 17  -21.0570 26005.8 -03462.5 -07.5839 26235.3
 04 08 2013  19 18  -21.0567 26005.8 -03462.5 -07.5840 26235.3
 04 08 2013  19 19  -21.0573 26005.6 -03462.5 -07.5840 26235.1
 04 08 2013  19 20  -21.0575 26005.5 -03462.4 -07.5838 26235.0
 04 08 2013  19 21  -21.0579 26005.7 -03462.5 -07.5839 26235.1
 04 08 2013  19 22  -21.0575 26005.5 -03462.3 -07.5836 26235.0
 04 08 2013  19 23  -21.0579 26006.0 -03462.5 -07.5838 26235.5
 04 08 2013  19 24  -21.0586 26006.3 -03462.4 -07.5837 26235.8
 04 08 2013  19 25  -21.0586 26006.7 -03462.4 -07.5835 26236.2
 04 08 2013  19 26  -21.0588 26006.9 -03462.5 -07.5835 26236.4
 04 08 2013  19 27  -21.0593 26006.8 -03462.4 -07.5833 26236.2
 04 08 2013  19 28  -21.0589 26006.3 -03462.0 -07.5827 26235.7
 04 08 2013  19 29  -21.0592 26006.4 -03462.0 -07.5826 26235.8
 04 08 2013  19 30  -21.0594 26006.5 -03462.0 -07.5826 26235.9
 04 08 2013  19 31  -21.0597 26006.2 -03461.8 -07.5822 26235.5
 04 08 2013  19 32  -21.0596 26005.5 -03461.4 -07.5816 26234.9
 04 08 2013  19 33  -21.0590 26005.0 -03461.2 -07.5814 26234.3
 04 08 2013  19 34  -21.0589 26004.7 -03461.2 -07.5814 26234.0
 04 08 2013  19 35  -21.0588 26004.9 -03461.2 -07.5815 26234.2
 04 08 2013  19 36  -21.0582 26004.7 -03461.2 -07.5814 26234.0
 04 08 2013  19 37  -21.0577 26004.6 -03461.3 -07.5816 26234.0
 04 08 2013  19 38  -21.0577 26004.4 -03461.3 -07.5816 26233.7
 04 08 2013  19 39  -21.0574 26004.0 -03461.1 -07.5814 26233.3
 04 08 2013  19 40  -21.0570 26003.4 -03460.9 -07.5811 26232.7
 04 08 2013  19 41  -21.0567 26003.0 -03460.8 -07.5810 26232.3
 04 08 2013  19 42  -21.0566 26002.7 -03460.7 -07.5809 26232.0
 04 08 2013  19 43  -21.0565 26002.8 -03460.8 -07.5811 26232.1
 04 08 2013  19 44  -21.0560 26002.5 -03460.8 -07.5813 26231.8
 04 08 2013  19 45  -21.0552 26001.8 -03460.7 -07.5813 26231.1
 04 08 2013  19 46  -21.0545 26001.1 -03460.7 -07.5813 26230.4
 04 08 2013  19 47  -21.0537 26000.6 -03460.7 -07.5815 26229.9
 04 08 2013  19 48  -21.0530 26000.1 -03460.8 -07.5819 26229.4
 04 08 2013  19 49  -21.0527 25999.8 -03461.0 -07.5823 26229.1
 04 08 2013  19 50  -21.0524 25999.3 -03461.0 -07.5825 26228.6
 04 08 2013  19 51  -21.0524 25999.4 -03461.2 -07.5831 26228.8
 04 08 2013  19 52  -21.0518 25999.5 -03461.5 -07.5836 26228.9
 04 08 2013  19 53  -21.0513 25999.1 -03461.5 -07.5838 26228.6
 04 08 2013  19 54  -21.0511 25999.0 -03461.7 -07.5842 26228.4
 04 08 2013  19 55  -21.0507 25998.4 -03461.8 -07.5845 26227.8
 04 08 2013  19 56  -21.0505 25998.4 -03462.1 -07.5851 26227.9
 04 08 2013  19 57  -21.0506 25998.4 -03462.3 -07.5857 26228.0
 04 08 2013  19 58  -21.0512 25998.4 -03462.6 -07.5863 26228.0
 04 08 2013  19 59  -21.0517 25998.8 -03463.0 -07.5870 26228.4
 04 08 2013  20 00  -21.0522 25999.2 -03463.3 -07.5875 26228.9
 04 08 2013  20 01  -21.0530 25999.7 -03463.5 -07.5878 26229.4
 04 08 2013  20 02  -21.0546 26000.5 -03463.8 -07.5882 26230.2
 04 08 2013  20 03  -21.0555 26000.9 -03463.8 -07.5882 26230.6
 04 08 2013  20 04  -21.0563 26001.1 -03463.7 -07.5879 26230.8
 04 08 2013  20 05  -21.0573 26001.2 -03463.6 -07.5877 26230.9
 04 08 2013  20 06  -21.0581 26001.3 -03463.6 -07.5875 26231.0
 04 08 2013  20 07  -21.0591 26001.3 -03463.5 -07.5873 26231.0
 04 08 2013  20 08  -21.0600 26001.5 -03463.4 -07.5871 26231.2
 04 08 2013  20 09  -21.0605 26001.5 -03463.2 -07.5867 26231.1
 04 08 2013  20 10  -21.0613 26001.5 -03463.1 -07.5864 26231.1
 04 08 2013  20 11  -21.0622 26001.6 -03462.9 -07.5860 26231.2
 04 08 2013  20 12  -21.0628 26001.4 -03462.6 -07.5855 26230.9
 04 08 2013  20 13  -21.0633 26001.1 -03462.4 -07.5851 26230.6
 04 08 2013  20 14  -21.0636 26000.8 -03462.2 -07.5847 26230.3
 04 08 2013  20 15  -21.0638 26000.4 -03462.0 -07.5843 26229.9
 04 08 2013  20 16  -21.0637 26000.1 -03461.7 -07.5839 26229.5
 04 08 2013  20 17  -21.0635 25999.8 -03461.6 -07.5837 26229.3
 04 08 2013  20 18  -21.0631 25999.7 -03461.5 -07.5835 26229.1
 04 08 2013  20 19  -21.0628 25999.4 -03461.4 -07.5834 26228.8
 04 08 2013  20 20  -21.0625 25999.1 -03461.3 -07.5833 26228.5
 04 08 2013  20 21  -21.0622 25998.6 -03461.1 -07.5831 26228.0
 04 08 2013  20 22  -21.0619 25998.3 -03461.1 -07.5830 26227.7
 04 08 2013  20 23  -21.0615 25998.2 -03461.1 -07.5831 26227.6
 04 08 2013  20 24  -21.0614 25997.8 -03461.0 -07.5830 26227.2
 04 08 2013  20 25  -21.0611 25997.3 -03460.9 -07.5830 26226.7
 04 08 2013  20 26  -21.0612 25996.9 -03460.9 -07.5830 26226.3
 04 08 2013  20 27  -21.0613 25996.4 -03460.8 -07.5830 26225.8
 04 08 2013  20 28  -21.0610 25995.7 -03460.6 -07.5828 26225.1
 04 08 2013  20 29  -21.0606 25995.1 -03460.5 -07.5826 26224.4
 04 08 2013  20 30  -21.0600 25994.7 -03460.4 -07.5825 26224.0
 04 08 2013  20 31  -21.0601 25994.5 -03460.4 -07.5827 26223.8
 04 08 2013  20 32  -21.0604 25994.1 -03460.4 -07.5827 26223.4
 04 08 2013  20 33  -21.0609 25994.2 -03460.6 -07.5831 26223.5
 04 08 2013  20 34  -21.0612 25994.2 -03460.7 -07.5833 26223.5
 04 08 2013  20 35  -21.0620 25994.1 -03460.8 -07.5835 26223.5
 04 08 2013  20 36  -21.0625 25994.1 -03460.8 -07.5837 26223.5
 04 08 2013  20 37  -21.0627 25994.3 -03461.0 -07.5839 26223.7
 04 08 2013  20 38  -21.0625 25994.3 -03461.0 -07.5840 26223.7
 04 08 2013  20 39  -21.0621 25994.4 -03461.1 -07.5841 26223.8
 04 08 2013  20 40  -21.0616 25994.7 -03461.2 -07.5844 26224.1
 04 08 2013  20 41  -21.0608 25995.0 -03461.3 -07.5845 26224.4
 04 08 2013  20 42  -21.0601 25994.6 -03461.2 -07.5843 26224.0
 04 08 2013  20 43  -21.0600 25994.5 -03461.2 -07.5844 26224.0
 04 08 2013  20 44  -21.0594 25994.5 -03461.4 -07.5847 26224.0
 04 08 2013  20 45  -21.0586 25994.5 -03461.4 -07.5849 26224.0
 04 08 2013  20 46  -21.0576 25994.4 -03461.3 -07.5847 26223.8
 04 08 2013  20 47  -21.0570 25994.2 -03461.2 -07.5845 26223.6
 04 08 2013  20 48  -21.0571 25993.7 -03461.0 -07.5843 26223.1
 04 08 2013  20 49  -21.0576 25993.3 -03460.9 -07.5841 26222.7
 04 08 2013  20 50  -21.0580 25992.9 -03460.8 -07.5839 26222.3
 04 08 2013  20 51  -21.0573 25993.1 -03460.8 -07.5839 26222.4
 04 08 2013  20 52  -21.0570 25992.8 -03460.6 -07.5836 26222.2
 04 08 2013  20 53  -21.0572 25992.4 -03460.5 -07.5835 26221.8
 04 08 2013  20 54  -21.0571 25992.0 -03460.3 -07.5832 26221.3
 04 08 2013  20 55  -21.0568 25991.4 -03460.1 -07.5828 26220.6
 04 08 2013  20 56  -21.0567 25990.7 -03459.8 -07.5824 26220.0
 04 08 2013  20 57  -21.0565 25990.0 -03459.6 -07.5822 26219.3
 04 08 2013  20 58  -21.0565 25989.6 -03459.5 -07.5821 26218.9
 04 08 2013  20 59  -21.0563 25989.5 -03459.6 -07.5824 26218.7
 04 08 2013  21 00  -21.0557 25989.5 -03459.8 -07.5828 26218.8
 04 08 2013  21 01  -21.0552 25989.3 -03459.9 -07.5831 26218.6
 04 08 2013  21 02  -21.0544 25989.3 -03460.1 -07.5835 26218.6
 04 08 2013  21 03  -21.0538 25989.4 -03460.3 -07.5838 26218.7
 04 08 2013  21 04  -21.0530 25989.5 -03460.4 -07.5841 26218.8
 04 08 2013  21 05  -21.0525 25989.3 -03460.5 -07.5843 26218.7
 04 08 2013  21 06  -21.0521 25989.3 -03460.6 -07.5846 26218.7
 04 08 2013  21 07  -21.0512 25989.5 -03460.8 -07.5849 26218.9
 04 08 2013  21 08  -21.0500 25989.8 -03461.0 -07.5853 26219.2
 04 08 2013  21 09  -21.0484 25989.8 -03461.1 -07.5855 26219.3
 04 08 2013  21 10  -21.0477 25989.9 -03461.3 -07.5859 26219.3
 04 08 2013  21 11  -21.0466 25990.0 -03461.5 -07.5863 26219.5
 04 08 2013  21 12  -21.0463 25989.7 -03461.6 -07.5866 26219.2
 04 08 2013  21 13  -21.0462 25989.9 -03461.9 -07.5871 26219.5
 04 08 2013  21 14  -21.0465 25989.9 -03462.0 -07.5875 26219.4
 04 08 2013  21 15  -21.0472 25989.8 -03462.2 -07.5879 26219.3
 04 08 2013  21 16  -21.0480 25989.2 -03462.2 -07.5880 26218.8
 04 08 2013  21 17  -21.0484 25988.8 -03462.2 -07.5881 26218.4
 04 08 2013  21 18  -21.0482 25988.9 -03462.3 -07.5883 26218.5
 04 08 2013  21 19  -21.0482 25988.3 -03462.1 -07.5881 26217.9
 04 08 2013  21 20  -21.0486 25988.2 -03462.1 -07.5882 26217.8
 04 08 2013  21 21  -21.0485 25987.8 -03462.0 -07.5880 26217.4
 04 08 2013  21 22  -21.0485 25987.6 -03462.0 -07.5880 26217.2
 04 08 2013  21 23  -21.0487 25987.3 -03461.9 -07.5880 26216.9
 04 08 2013  21 24  -21.0483 25987.3 -03462.0 -07.5881 26216.9
 04 08 2013  21 25  -21.0479 25987.2 -03462.1 -07.5884 26216.8
 04 08 2013  21 26  -21.0473 25987.2 -03462.2 -07.5886 26216.8
 04 08 2013  21 27  -21.0466 25987.0 -03462.2 -07.5887 26216.6
 04 08 2013  21 28  -21.0465 25986.9 -03462.2 -07.5888 26216.5
 04 08 2013  21 29  -21.0468 25986.9 -03462.4 -07.5892 26216.6
 04 08 2013  21 30  -21.0473 25987.3 -03462.7 -07.5898 26217.0
 04 08 2013  21 31  -21.0481 25987.6 -03463.0 -07.5904 26217.3
 04 08 2013  21 32  -21.0493 25987.7 -03463.2 -07.5907 26217.4
 04 08 2013  21 33  -21.0504 25987.7 -03463.3 -07.5909 26217.4
 04 08 2013  21 34  -21.0513 25987.5 -03463.3 -07.5909 26217.3
 04 08 2013  21 35  -21.0520 25987.5 -03463.2 -07.5908 26217.2
 04 08 2013  21 36  -21.0522 25987.7 -03463.3 -07.5909 26217.4
 04 08 2013  21 37  -21.0519 25987.8 -03463.4 -07.5910 26217.5
 04 08 2013  21 38  -21.0515 25987.8 -03463.4 -07.5910 26217.5
 04 08 2013  21 39  -21.0515 25987.6 -03463.3 -07.5909 26217.3
 04 08 2013  21 40  -21.0511 25987.6 -03463.3 -07.5910 26217.3
 04 08 2013  21 41  -21.0502 25987.5 -03463.3 -07.5909 26217.2
 04 08 2013  21 42  -21.0490 25987.7 -03463.4 -07.5911 26217.5
 04 08 2013  21 43  -21.0479 25987.7 -03463.5 -07.5912 26217.5
 04 08 2013  21 44  -21.0468 25987.9 -03463.6 -07.5915 26217.7
 04 08 2013  21 45  -21.0459 25988.0 -03463.8 -07.5918 26217.8
 04 08 2013  21 46  -21.0455 25988.2 -03464.0 -07.5923 26218.1
 04 08 2013  21 47  -21.0451 25988.4 -03464.2 -07.5927 26218.3
 04 08 2013  21 48  -21.0449 25988.5 -03464.4 -07.5930 26218.4
 04 08 2013  21 49  -21.0446 25988.5 -03464.4 -07.5931 26218.4
 04 08 2013  21 50  -21.0441 25988.4 -03464.5 -07.5932 26218.3
 04 08 2013  21 51  -21.0439 25988.3 -03464.4 -07.5931 26218.2
 04 08 2013  21 52  -21.0440 25988.4 -03464.6 -07.5935 26218.4
 04 08 2013  21 53  -21.0441 25988.2 -03464.6 -07.5935 26218.1
 04 08 2013  21 54  -21.0442 25988.1 -03464.6 -07.5936 26218.0
 04 08 2013  21 55  -21.0443 25988.1 -03464.7 -07.5937 26218.0
 04 08 2013  21 56  -21.0448 25988.0 -03464.7 -07.5938 26217.9
 04 08 2013  21 57  -21.0461 25988.1 -03464.9 -07.5942 26218.1
 04 08 2013  21 58  -21.0473 25988.4 -03465.1 -07.5945 26218.4
 04 08 2013  21 59  -21.0480 25988.7 -03465.3 -07.5948 26218.7
 04 08 2013  22 00  -21.0487 25988.9 -03465.4 -07.5950 26219.0
 04 08 2013  22 01  -21.0490 25989.1 -03465.4 -07.5951 26219.1
 04 08 2013  22 02  -21.0492 25989.1 -03465.4 -07.5950 26219.1
 04 08 2013  22 03  -21.0489 25989.1 -03465.3 -07.5948 26219.1
 04 08 2013  22 04  -21.0486 25989.1 -03465.2 -07.5946 26219.1
 04 08 2013  22 05  -21.0486 25989.0 -03465.2 -07.5946 26219.0
 04 08 2013  22 06  -21.0486 25989.1 -03465.2 -07.5947 26219.1
 04 08 2013  22 07  -21.0482 25989.2 -03465.2 -07.5947 26219.2
 04 08 2013  22 08  -21.0478 25989.0 -03465.1 -07.5945 26219.0
 04 08 2013  22 09  -21.0475 25988.8 -03465.1 -07.5944 26218.8
 04 08 2013  22 10  -21.0475 25988.9 -03465.2 -07.5946 26218.9
 04 08 2013  22 11  -21.0477 25988.9 -03465.2 -07.5947 26218.9
 04 08 2013  22 12  -21.0483 25989.0 -03465.3 -07.5949 26219.1
 04 08 2013  22 13  -21.0490 25989.1 -03465.5 -07.5952 26219.2
 04 08 2013  22 14  -21.0492 25989.4 -03465.7 -07.5955 26219.5
 04 08 2013  22 15  -21.0493 25989.8 -03465.9 -07.5958 26219.9
 04 08 2013  22 16  -21.0492 25990.1 -03466.0 -07.5961 26220.2
 04 08 2013  22 17  -21.0491 25990.1 -03466.0 -07.5961 26220.2
 04 08 2013  22 18  -21.0486 25990.1 -03466.0 -07.5961 26220.2
 04 08 2013  22 19  -21.0480 25989.8 -03465.9 -07.5959 26219.9
 04 08 2013  22 20  -21.0471 25989.5 -03465.8 -07.5957 26219.6
 04 08 2013  22 21  -21.0464 25989.2 -03465.6 -07.5955 26219.3
 04 08 2013  22 22  -21.0455 25989.0 -03465.6 -07.5954 26219.0
 04 08 2013  22 23  -21.0445 25989.1 -03465.7 -07.5956 26219.1
 04 08 2013  22 24  -21.0438 25988.8 -03465.7 -07.5957 26218.9
 04 08 2013  22 25  -21.0436 25988.9 -03465.7 -07.5959 26218.9
 04 08 2013  22 26  -21.0433 25988.8 -03465.8 -07.5961 26218.9
 04 08 2013  22 27  -21.0426 25989.0 -03466.0 -07.5963 26219.1
 04 08 2013  22 28  -21.0412 25989.2 -03466.2 -07.5966 26219.3
 04 08 2013  22 29  -21.0396 25989.4 -03466.3 -07.5969 26219.5
 04 08 2013  22 30  -21.0381 25989.5 -03466.4 -07.5971 26219.7
 04 08 2013  22 31  -21.0369 25989.6 -03466.6 -07.5975 26219.8
 04 08 2013  22 32  -21.0358 25989.9 -03466.8 -07.5979 26220.1
 04 08 2013  22 33  -21.0350 25990.2 -03467.1 -07.5984 26220.4
 04 08 2013  22 34  -21.0346 25990.6 -03467.4 -07.5990 26220.8
 04 08 2013  22 35  -21.0341 25990.8 -03467.7 -07.5994 26221.1
 04 08 2013  22 36  -21.0333 25991.0 -03467.8 -07.5997 26221.3
 04 08 2013  22 37  -21.0329 25991.0 -03467.9 -07.5998 26221.3
 04 08 2013  22 38  -21.0329 25990.9 -03467.9 -07.5999 26221.2
 04 08 2013  22 39  -21.0332 25991.1 -03468.1 -07.6002 26221.5
 04 08 2013  22 40  -21.0331 25991.5 -03468.3 -07.6007 26221.9
 04 08 2013  22 41  -21.0328 25991.9 -03468.5 -07.6010 26222.3
 04 08 2013  22 42  -21.0326 25992.4 -03468.8 -07.6014 26222.8
 04 08 2013  22 43  -21.0327 25992.9 -03469.1 -07.6019 26223.4
 04 08 2013  22 44  -21.0327 25993.5 -03469.4 -07.6024 26224.1
 04 08 2013  22 45  -21.0331 25994.1 -03469.7 -07.6028 26224.7
 04 08 2013  22 46  -21.0336 25994.7 -03469.9 -07.6032 26225.2
 04 08 2013  22 47  -21.0344 25995.2 -03470.1 -07.6035 26225.8
 04 08 2013  22 48  -21.0356 25996.1 -03470.5 -07.6040 26226.7
 04 08 2013  22 49  -21.0365 25996.9 -03470.8 -07.6045 26227.5
 04 08 2013  22 50  -21.0374 25997.7 -03471.1 -07.6048 26228.4
 04 08 2013  22 51  -21.0382 25998.5 -03471.3 -07.6052 26229.2
 04 08 2013  22 52  -21.0388 25999.4 -03471.6 -07.6054 26230.1
 04 08 2013  22 53  -21.0390 26000.1 -03471.8 -07.6056 26230.9
 04 08 2013  22 54  -21.0390 26000.7 -03471.9 -07.6056 26231.5
 04 08 2013  22 55  -21.0393 26001.3 -03471.9 -07.6056 26232.0
 04 08 2013  22 56  -21.0394 26001.8 -03471.9 -07.6056 26232.5
 04 08 2013  22 57  -21.0393 26002.2 -03471.9 -07.6054 26232.9
 04 08 2013  22 58  -21.0391 26002.5 -03471.9 -07.6053 26233.3
 04 08 2013  22 59  -21.0391 26002.9 -03471.9 -07.6052 26233.6
 04 08 2013  23 00  -21.0391 26003.2 -03471.9 -07.6051 26233.9
 04 08 2013  23 01  -21.0396 26003.4 -03471.9 -07.6050 26234.2
 04 08 2013  23 02  -21.0402 26003.7 -03471.9 -07.6050 26234.5
 04 08 2013  23 03  -21.0409 26004.0 -03472.0 -07.6050 26234.8
 04 08 2013  23 04  -21.0415 26004.5 -03472.1 -07.6051 26235.3
 04 08 2013  23 05  -21.0419 26004.9 -03472.2 -07.6051 26235.7
 04 08 2013  23 06  -21.0419 26005.3 -03472.2 -07.6050 26236.1
 04 08 2013  23 07  -21.0417 26005.5 -03472.1 -07.6048 26236.3
 04 08 2013  23 08  -21.0417 26005.7 -03472.1 -07.6047 26236.5
 04 08 2013  23 09  -21.0426 26006.0 -03472.1 -07.6046 26236.7
 04 08 2013  23 10  -21.0439 26006.2 -03472.1 -07.6047 26237.0
 04 08 2013  23 11  -21.0453 26006.4 -03472.1 -07.6046 26237.2
 04 08 2013  23 12  -21.0463 26006.4 -03472.0 -07.6043 26237.2
 04 08 2013  23 13  -21.0471 26006.7 -03471.9 -07.6040 26237.4
 04 08 2013  23 14  -21.0476 26007.0 -03471.9 -07.6040 26237.8
 04 08 2013  23 15  -21.0478 26007.6 -03472.0 -07.6039 26238.3
 04 08 2013  23 16  -21.0475 26007.9 -03472.0 -07.6039 26238.7
 04 08 2013  23 17  -21.0474 26008.2 -03471.9 -07.6037 26239.0
 04 08 2013  23 18  -21.0474 26008.8 -03472.1 -07.6038 26239.5
 04 08 2013  23 19  -21.0480 26008.9 -03472.0 -07.6036 26239.6
 04 08 2013  23 20  -21.0489 26008.7 -03471.8 -07.6033 26239.4
 04 08 2013  23 21  -21.0496 26008.4 -03471.6 -07.6028 26239.1
 04 08 2013  23 22  -21.0503 26008.2 -03471.3 -07.6023 26238.8
 04 08 2013  23 23  -21.0510 26007.9 -03471.0 -07.6018 26238.5
 04 08 2013  23 24  -21.0512 26007.3 -03470.6 -07.6010 26237.9
 04 08 2013  23 25  -21.0509 26006.7 -03470.2 -07.6003 26237.2
 04 08 2013  23 26  -21.0502 26006.4 -03469.8 -07.5996 26236.8
 04 08 2013  23 27  -21.0494 26006.3 -03469.7 -07.5993 26236.7
 04 08 2013  23 28  -21.0487 26006.4 -03469.6 -07.5992 26236.8
 04 08 2013  23 29  -21.0482 26006.3 -03469.6 -07.5993 26236.7
 04 08 2013  23 30  -21.0480 26006.1 -03469.5 -07.5991 26236.5
 04 08 2013  23 31  -21.0477 26006.0 -03469.5 -07.5990 26236.4
 04 08 2013  23 32  -21.0478 26005.8 -03469.4 -07.5990 26236.2
 04 08 2013  23 33  -21.0482 26005.6 -03469.4 -07.5989 26236.0
 04 08 2013  23 34  -21.0486 26005.3 -03469.3 -07.5987 26235.7
 04 08 2013  23 35  -21.0490 26005.1 -03469.2 -07.5986 26235.5
 04 08 2013  23 36  -21.0494 26005.0 -03469.2 -07.5986 26235.4
 04 08 2013  23 37  -21.0501 26004.8 -03469.1 -07.5985 26235.2
 04 08 2013  23 38  -21.0511 26004.6 -03469.0 -07.5984 26235.0
 04 08 2013  23 39  -21.0519 26004.3 -03468.9 -07.5981 26234.6
 04 08 2013  23 40  -21.0522 26004.3 -03468.8 -07.5981 26234.7
 04 08 2013  23 41  -21.0526 26004.4 -03468.9 -07.5982 26234.8
 04 08 2013  23 42  -21.0528 26004.5 -03468.9 -07.5981 26234.8
 04 08 2013  23 43  -21.0534 26004.4 -03468.9 -07.5981 26234.7
 04 08 2013  23 44  -21.0544 26004.1 -03468.8 -07.5980 26234.5
 04 08 2013  23 45  -21.0552 26003.8 -03468.6 -07.5977 26234.2
 04 08 2013  23 46  -21.0559 26003.4 -03468.4 -07.5973 26233.7
 04 08 2013  23 47  -21.0563 26003.0 -03468.1 -07.5969 26233.2
 04 08 2013  23 48  -21.0561 26002.5 -03467.8 -07.5964 26232.7
 04 08 2013  23 49  -21.0562 26002.0 -03467.5 -07.5959 26232.2
 04 08 2013  23 50  -21.0560 26001.6 -03467.4 -07.5957 26231.8
 04 08 2013  23 51  -21.0554 26001.2 -03467.2 -07.5954 26231.4
 04 08 2013  23 52  -21.0553 26001.1 -03467.2 -07.5954 26231.2
 04 08 2013  23 53  -21.0553 26000.9 -03467.1 -07.5954 26231.0
 04 08 2013  23 54  -21.0552 26000.7 -03467.1 -07.5954 26230.8
 04 08 2013  23 55  -21.0551 26000.4 -03467.0 -07.5953 26230.5
 04 08 2013  23 56  -21.0548 26000.2 -03467.0 -07.5953 26230.3
 04 08 2013  23 57  -21.0542 25999.9 -03466.9 -07.5952 26230.0
 04 08 2013  23 58  -21.0533 25999.4 -03466.7 -07.5949 26229.5
