SAO LUIS EMBRACE-03 <100> 1 Min. Reported data

 DD MM YYYY  HH MM   D(Deg)  H(nT)   Z(nT)   I(Deg)   F(nT)

 10 04 2013  00 00  -21.0367 26037.1 -03426.3 -07.4966 26261.5
 10 04 2013  00 01  -21.0367 26037.1 -03426.2 -07.4965 26261.5
 10 04 2013  00 02  -21.0366 26037.2 -03426.3 -07.4966 26261.6
 10 04 2013  00 03  -21.0367 26037.2 -03426.3 -07.4967 26261.7
 10 04 2013  00 04  -21.0369 26037.3 -03426.3 -07.4966 26261.7
 10 04 2013  00 05  -21.0369 26037.2 -03426.3 -07.4966 26261.7
 10 04 2013  00 06  -21.0371 26037.2 -03426.3 -07.4965 26261.7
 10 04 2013  00 07  -21.0370 26037.1 -03426.2 -07.4965 26261.5
 10 04 2013  00 08  -21.0371 26037.0 -03426.2 -07.4964 26261.4
 10 04 2013  00 09  -21.0370 26036.9 -03426.1 -07.4963 26261.4
 10 04 2013  00 10  -21.0370 26036.9 -03426.1 -07.4963 26261.3
 10 04 2013  00 11  -21.0371 26036.8 -03426.1 -07.4963 26261.2
 10 04 2013  00 12  -21.0371 26036.8 -03426.1 -07.4962 26261.2
 10 04 2013  00 13  -21.0372 26036.7 -03426.1 -07.4962 26261.2
 10 04 2013  00 14  -21.0373 26036.7 -03426.1 -07.4962 26261.1
 10 04 2013  00 15  -21.0373 26036.7 -03426.0 -07.4962 26261.1
 10 04 2013  00 16  -21.0373 26036.7 -03426.0 -07.4962 26261.1
 10 04 2013  00 17  -21.0374 26036.7 -03426.1 -07.4962 26261.2
 10 04 2013  00 18  -21.0375 26036.7 -03426.1 -07.4963 26261.2
 10 04 2013  00 19  -21.0376 26036.8 -03426.1 -07.4963 26261.2
 10 04 2013  00 20  -21.0376 26036.7 -03426.1 -07.4963 26261.1
 10 04 2013  00 21  -21.0376 26036.8 -03426.1 -07.4964 26261.2
 10 04 2013  00 22  -21.0377 26036.9 -03426.2 -07.4965 26261.3
 10 04 2013  00 23  -21.0377 26037.0 -03426.2 -07.4965 26261.5
 10 04 2013  00 24  -21.0376 26037.1 -03426.3 -07.4966 26261.5
 10 04 2013  00 25  -21.0376 26037.1 -03426.3 -07.4966 26261.6
 10 04 2013  00 26  -21.0376 26037.1 -03426.3 -07.4967 26261.6
 10 04 2013  00 27  -21.0375 26037.1 -03426.3 -07.4966 26261.6
 10 04 2013  00 28  -21.0374 26037.1 -03426.3 -07.4966 26261.6
 10 04 2013  00 29  -21.0374 26037.1 -03426.3 -07.4965 26261.6
 10 04 2013  00 30  -21.0373 26037.1 -03426.3 -07.4965 26261.6
 10 04 2013  00 31  -21.0373 26037.1 -03426.3 -07.4966 26261.6
 10 04 2013  00 32  -21.0373 26037.1 -03426.3 -07.4966 26261.6
 10 04 2013  00 33  -21.0374 26037.2 -03426.3 -07.4966 26261.6
 10 04 2013  00 34  -21.0374 26037.2 -03426.3 -07.4966 26261.6
 10 04 2013  00 35  -21.0374 26037.1 -03426.3 -07.4966 26261.6
 10 04 2013  00 36  -21.0375 26037.1 -03426.3 -07.4966 26261.6
 10 04 2013  00 37  -21.0375 26037.1 -03426.2 -07.4965 26261.5
 10 04 2013  00 38  -21.0375 26037.1 -03426.2 -07.4965 26261.5
 10 04 2013  00 39  -21.0375 26037.0 -03426.2 -07.4965 26261.5
 10 04 2013  00 40  -21.0374 26037.0 -03426.2 -07.4964 26261.5
 10 04 2013  00 41  -21.0374 26037.0 -03426.2 -07.4964 26261.5
 10 04 2013  00 42  -21.0375 26037.1 -03426.2 -07.4964 26261.5
 10 04 2013  00 43  -21.0374 26037.1 -03426.2 -07.4965 26261.5
 10 04 2013  00 44  -21.0374 26037.1 -03426.2 -07.4965 26261.6
 10 04 2013  00 45  -21.0374 26037.1 -03426.2 -07.4965 26261.6
 10 04 2013  00 46  -21.0373 26037.2 -03426.3 -07.4965 26261.6
 10 04 2013  00 47  -21.0373 26037.3 -03426.3 -07.4966 26261.7
 10 04 2013  00 48  -21.0372 26037.3 -03426.3 -07.4966 26261.8
 10 04 2013  00 49  -21.0371 26037.4 -03426.3 -07.4966 26261.9
 10 04 2013  00 50  -21.0370 26037.4 -03426.3 -07.4966 26261.9
 10 04 2013  00 51  -21.0368 26037.4 -03426.3 -07.4966 26261.9
 10 04 2013  00 52  -21.0367 26037.4 -03426.3 -07.4966 26261.9
 10 04 2013  00 53  -21.0367 26037.4 -03426.3 -07.4965 26261.8
 10 04 2013  00 54  -21.0368 26037.4 -03426.3 -07.4966 26261.8
 10 04 2013  00 55  -21.0369 26037.3 -03426.3 -07.4965 26261.8
 10 04 2013  00 56  -21.0370 26037.3 -03426.3 -07.4965 26261.8
 10 04 2013  00 57  -21.0370 26037.2 -03426.2 -07.4964 26261.7
 10 04 2013  00 58  -21.0370 26037.1 -03426.2 -07.4964 26261.6
 10 04 2013  00 59  -21.0370 26037.0 -03426.1 -07.4963 26261.5
 10 04 2013  01 00  -21.0369 26036.9 -03426.1 -07.4962 26261.4
 10 04 2013  01 01  -21.0368 26036.9 -03426.0 -07.4961 26261.4
 10 04 2013  01 02  -21.0373 26036.7 -03426.0 -07.4961 26261.2
 10 04 2013  01 03  -21.0369 26036.7 -03426.0 -07.4961 26261.2
 10 04 2013  01 04  -21.0368 26036.8 -03426.0 -07.4961 26261.2
 10 04 2013  01 05  -21.0367 26036.9 -03426.1 -07.4963 26261.4
 10 04 2013  01 06  -21.0366 26037.0 -03426.2 -07.4963 26261.5
 10 04 2013  01 07  -21.0365 26037.1 -03426.2 -07.4964 26261.6
 10 04 2013  01 08  -21.0365 26037.2 -03426.3 -07.4965 26261.6
 10 04 2013  01 09  -21.0364 26037.2 -03426.3 -07.4966 26261.7
 10 04 2013  01 10  -21.0362 26037.3 -03426.3 -07.4966 26261.7
 10 04 2013  01 11  -21.0362 26037.3 -03426.3 -07.4966 26261.7
 10 04 2013  01 12  -21.0361 26037.3 -03426.3 -07.4966 26261.8
 10 04 2013  01 13  -21.0361 26037.3 -03426.3 -07.4966 26261.8
 10 04 2013  01 14  -21.0360 26037.3 -03426.3 -07.4966 26261.7
 10 04 2013  01 15  -21.0360 26037.2 -03426.3 -07.4966 26261.7
 10 04 2013  01 16  -21.0360 26037.1 -03426.2 -07.4965 26261.6
 10 04 2013  01 17  -21.0360 26037.0 -03426.2 -07.4965 26261.5
 10 04 2013  01 18  -21.0360 26036.9 -03426.2 -07.4964 26261.4
 10 04 2013  01 19  -21.0361 26036.8 -03426.1 -07.4963 26261.3
 10 04 2013  01 20  -21.0361 26036.7 -03426.1 -07.4963 26261.1
 10 04 2013  01 21  -21.0360 26036.6 -03426.1 -07.4963 26261.0
 10 04 2013  01 22  -21.0360 26036.5 -03426.0 -07.4962 26260.9
 10 04 2013  01 23  -21.0359 26036.4 -03426.0 -07.4962 26260.8
 10 04 2013  01 24  -21.0359 26036.3 -03426.0 -07.4962 26260.8
 10 04 2013  01 25  -21.0358 26036.3 -03426.0 -07.4962 26260.7
 10 04 2013  01 26  -21.0356 26036.3 -03426.0 -07.4962 26260.7
 10 04 2013  01 27  -21.0354 26036.1 -03426.0 -07.4963 26260.5
 10 04 2013  01 28  -21.0359 26036.1 -03426.0 -07.4963 26260.5
 10 04 2013  01 29  -21.0357 26036.1 -03426.0 -07.4963 26260.5
 10 04 2013  01 30  -21.0358 26036.1 -03426.0 -07.4963 26260.5
 10 04 2013  01 31  -21.0357 26036.0 -03426.0 -07.4964 26260.4
 10 04 2013  01 32  -21.0358 26036.0 -03426.1 -07.4964 26260.4
 10 04 2013  01 33  -21.0358 26035.9 -03426.1 -07.4964 26260.4
 10 04 2013  01 34  -21.0359 26035.9 -03426.1 -07.4965 26260.3
 10 04 2013  01 35  -21.0360 26035.8 -03426.1 -07.4965 26260.2
 10 04 2013  01 36  -21.0361 26035.7 -03426.1 -07.4965 26260.1
 10 04 2013  01 37  -21.0361 26035.7 -03426.1 -07.4965 26260.1
 10 04 2013  01 38  -21.0362 26035.7 -03426.1 -07.4966 26260.1
 10 04 2013  01 39  -21.0362 26035.7 -03426.1 -07.4966 26260.1
 10 04 2013  01 40  -21.0362 26035.6 -03426.1 -07.4966 26260.1
 10 04 2013  01 41  -21.0361 26035.6 -03426.1 -07.4966 26260.0
 10 04 2013  01 42  -21.0360 26035.6 -03426.1 -07.4966 26260.0
 10 04 2013  01 43  -21.0359 26035.5 -03426.1 -07.4966 26260.0
 10 04 2013  01 44  -21.0359 26035.5 -03426.1 -07.4967 26260.0
 10 04 2013  01 45  -21.0358 26035.5 -03426.1 -07.4967 26260.0
 10 04 2013  01 46  -21.0358 26035.5 -03426.2 -07.4968 26260.0
 10 04 2013  01 47  -21.0357 26035.5 -03426.2 -07.4969 26260.0
 10 04 2013  01 48  -21.0357 26035.6 -03426.2 -07.4970 26260.0
 10 04 2013  01 49  -21.0357 26035.5 -03426.3 -07.4970 26260.0
 10 04 2013  01 50  -21.0356 26035.6 -03426.3 -07.4970 26260.0
 10 04 2013  01 51  -21.0356 26035.6 -03426.4 -07.4972 26260.1
 10 04 2013  01 52  -21.0356 26035.7 -03426.4 -07.4972 26260.2
 10 04 2013  01 53  -21.0356 26035.7 -03426.4 -07.4973 26260.2
 10 04 2013  01 54  -21.0356 26035.8 -03426.5 -07.4974 26260.3
 10 04 2013  01 55  -21.0355 26035.9 -03426.5 -07.4974 26260.4
 10 04 2013  01 56  -21.0355 26036.0 -03426.6 -07.4975 26260.5
 10 04 2013  01 57  -21.0355 26036.0 -03426.6 -07.4976 26260.5
 10 04 2013  01 58  -21.0355 26036.0 -03426.6 -07.4976 26260.5
 10 04 2013  01 59  -21.0355 26036.1 -03426.6 -07.4976 26260.6
 10 04 2013  02 00  -21.0354 26036.1 -03426.6 -07.4976 26260.6
 10 04 2013  02 01  -21.0353 26036.0 -03426.6 -07.4976 26260.6
 10 04 2013  02 02  -21.0353 26036.0 -03426.6 -07.4976 26260.5
 10 04 2013  02 03  -21.0353 26036.0 -03426.6 -07.4976 26260.5
 10 04 2013  02 04  -21.0353 26036.0 -03426.6 -07.4976 26260.5
 10 04 2013  02 05  -21.0352 26036.0 -03426.6 -07.4976 26260.5
 10 04 2013  02 06  -21.0351 26036.0 -03426.6 -07.4976 26260.5
 10 04 2013  02 07  -21.0351 26036.0 -03426.6 -07.4976 26260.5
 10 04 2013  02 08  -21.0350 26036.0 -03426.6 -07.4977 26260.6
 10 04 2013  02 09  -21.0349 26036.0 -03426.7 -07.4977 26260.6
 10 04 2013  02 10  -21.0349 26036.1 -03426.7 -07.4978 26260.7
 10 04 2013  02 11  -21.0349 26036.3 -03426.8 -07.4979 26260.8
 10 04 2013  02 12  -21.0348 26036.4 -03426.9 -07.4980 26261.0
 10 04 2013  02 13  -21.0347 26036.5 -03426.9 -07.4981 26261.0
 10 04 2013  02 14  -21.0347 26036.6 -03426.9 -07.4981 26261.1
 10 04 2013  02 15  -21.0346 26036.7 -03427.0 -07.4983 26261.3
 10 04 2013  02 16  -21.0346 26036.8 -03427.0 -07.4983 26261.4
 10 04 2013  02 17  -21.0345 26036.9 -03427.1 -07.4983 26261.4
 10 04 2013  02 18  -21.0344 26037.0 -03427.1 -07.4984 26261.5
 10 04 2013  02 19  -21.0342 26037.0 -03427.1 -07.4984 26261.6
 10 04 2013  02 20  -21.0341 26037.1 -03427.1 -07.4984 26261.6
 10 04 2013  02 21  -21.0340 26037.1 -03427.1 -07.4984 26261.6
 10 04 2013  02 22  -21.0339 26037.1 -03427.1 -07.4984 26261.6
 10 04 2013  02 23  -21.0339 26037.0 -03427.1 -07.4984 26261.6
 10 04 2013  02 24  -21.0338 26037.0 -03427.1 -07.4984 26261.6
 10 04 2013  02 25  -21.0338 26036.9 -03427.1 -07.4984 26261.5
 10 04 2013  02 26  -21.0338 26036.9 -03427.1 -07.4984 26261.5
 10 04 2013  02 27  -21.0338 26036.9 -03427.1 -07.4984 26261.5
 10 04 2013  02 28  -21.0338 26036.9 -03427.1 -07.4985 26261.5
 10 04 2013  02 29  -21.0338 26036.9 -03427.1 -07.4985 26261.5
 10 04 2013  02 30  -21.0337 26036.8 -03427.1 -07.4985 26261.4
 10 04 2013  02 31  -21.0337 26036.9 -03427.2 -07.4985 26261.4
 10 04 2013  02 32  -21.0336 26036.8 -03427.1 -07.4986 26261.3
 10 04 2013  02 33  -21.0335 26036.7 -03427.1 -07.4986 26261.3
 10 04 2013  02 34  -21.0335 26036.7 -03427.2 -07.4986 26261.2
 10 04 2013  02 35  -21.0335 26036.6 -03427.1 -07.4986 26261.1
 10 04 2013  02 36  -21.0336 26036.4 -03427.1 -07.4986 26261.0
 10 04 2013  02 37  -21.0336 26036.4 -03427.1 -07.4986 26261.0
 10 04 2013  02 38  -21.0336 26036.3 -03427.1 -07.4987 26260.9
 10 04 2013  02 39  -21.0335 26036.2 -03427.2 -07.4987 26260.8
 10 04 2013  02 40  -21.0334 26036.2 -03427.2 -07.4988 26260.8
 10 04 2013  02 41  -21.0333 26036.2 -03427.2 -07.4989 26260.8
 10 04 2013  02 42  -21.0332 26036.1 -03427.3 -07.4990 26260.7
 10 04 2013  02 43  -21.0331 26036.1 -03427.3 -07.4991 26260.7
 10 04 2013  02 44  -21.0330 26036.1 -03427.4 -07.4992 26260.7
 10 04 2013  02 45  -21.0329 26036.0 -03427.5 -07.4994 26260.7
 10 04 2013  02 46  -21.0329 26036.1 -03427.5 -07.4996 26260.7
 10 04 2013  02 47  -21.0329 26036.2 -03427.6 -07.4997 26260.8
 10 04 2013  02 48  -21.0329 26036.2 -03427.7 -07.4999 26260.9
 10 04 2013  02 49  -21.0329 26036.3 -03427.8 -07.5001 26261.0
 10 04 2013  02 50  -21.0329 26036.4 -03427.9 -07.5003 26261.0
 10 04 2013  02 51  -21.0330 26036.4 -03427.9 -07.5004 26261.1
 10 04 2013  02 52  -21.0329 26036.5 -03428.0 -07.5006 26261.2
 10 04 2013  02 53  -21.0328 26036.6 -03428.2 -07.5008 26261.3
 10 04 2013  02 54  -21.0328 26036.9 -03428.3 -07.5011 26261.6
 10 04 2013  02 55  -21.0328 26037.1 -03428.5 -07.5014 26261.8
 10 04 2013  02 56  -21.0329 26037.3 -03428.6 -07.5016 26262.1
 10 04 2013  02 57  -21.0329 26037.6 -03428.8 -07.5019 26262.4
 10 04 2013  02 58  -21.0329 26037.9 -03429.0 -07.5022 26262.7
 10 04 2013  02 59  -21.0329 26038.3 -03429.2 -07.5025 26263.1
 10 04 2013  03 00  -21.0329 26038.6 -03429.3 -07.5027 26263.4
 10 04 2013  03 01  -21.0329 26038.9 -03429.4 -07.5029 26263.8
 10 04 2013  03 02  -21.0329 26039.2 -03429.6 -07.5031 26264.1
 10 04 2013  03 03  -21.0328 26039.4 -03429.6 -07.5032 26264.3
 10 04 2013  03 04  -21.0328 26039.6 -03429.7 -07.5032 26264.5
 10 04 2013  03 05  -21.0328 26039.7 -03429.7 -07.5032 26264.6
 10 04 2013  03 06  -21.0329 26039.7 -03429.6 -07.5031 26264.6
 10 04 2013  03 07  -21.0330 26039.7 -03429.6 -07.5029 26264.6
 10 04 2013  03 08  -21.0330 26039.6 -03429.4 -07.5027 26264.4
 10 04 2013  03 09  -21.0332 26039.4 -03429.3 -07.5025 26264.3
 10 04 2013  03 10  -21.0332 26039.2 -03429.1 -07.5021 26264.0
 10 04 2013  03 11  -21.0332 26039.0 -03428.9 -07.5018 26263.8
 10 04 2013  03 12  -21.0332 26038.9 -03428.8 -07.5016 26263.6
 10 04 2013  03 13  -21.0331 26038.8 -03428.8 -07.5015 26263.6
 10 04 2013  03 14  -21.0331 26038.8 -03428.7 -07.5014 26263.5
 10 04 2013  03 15  -21.0329 26038.8 -03428.8 -07.5015 26263.6
 10 04 2013  03 16  -21.0328 26038.9 -03428.8 -07.5015 26263.7
 10 04 2013  03 17  -21.0327 26039.0 -03428.8 -07.5016 26263.8
 10 04 2013  03 18  -21.0325 26039.0 -03428.9 -07.5017 26263.8
 10 04 2013  03 19  -21.0324 26039.1 -03428.9 -07.5017 26263.9
 10 04 2013  03 20  -21.0323 26039.1 -03428.9 -07.5017 26263.9
 10 04 2013  03 21  -21.0322 26039.1 -03428.9 -07.5017 26263.9
 10 04 2013  03 22  -21.0321 26039.1 -03428.9 -07.5016 26263.9
 10 04 2013  03 23  -21.0321 26039.1 -03428.9 -07.5016 26263.9
 10 04 2013  03 24  -21.0321 26039.0 -03428.9 -07.5016 26263.8
 10 04 2013  03 25  -21.0320 26039.0 -03428.8 -07.5016 26263.7
 10 04 2013  03 26  -21.0320 26038.9 -03428.8 -07.5016 26263.7
 10 04 2013  03 27  -21.0319 26038.9 -03428.8 -07.5016 26263.7
 10 04 2013  03 28  -21.0319 26038.8 -03428.8 -07.5016 26263.6
 10 04 2013  03 29  -21.0320 26038.8 -03428.8 -07.5016 26263.6
 10 04 2013  03 30  -21.0321 26038.8 -03428.9 -07.5017 26263.6
 10 04 2013  03 31  -21.0321 26038.8 -03428.9 -07.5017 26263.6
 10 04 2013  03 32  -21.0321 26038.8 -03428.9 -07.5017 26263.6
 10 04 2013  03 33  -21.0321 26038.9 -03428.9 -07.5018 26263.7
 10 04 2013  03 34  -21.0321 26038.9 -03428.9 -07.5018 26263.7
 10 04 2013  03 35  -21.0321 26038.9 -03428.9 -07.5018 26263.7
 10 04 2013  03 36  -21.0321 26038.9 -03428.9 -07.5018 26263.7
 10 04 2013  03 37  -21.0321 26038.9 -03429.0 -07.5019 26263.7
 10 04 2013  03 38  -21.0321 26038.9 -03429.0 -07.5019 26263.7
 10 04 2013  03 39  -21.0321 26039.0 -03429.0 -07.5020 26263.8
 10 04 2013  03 40  -21.0322 26038.9 -03429.0 -07.5019 26263.7
 10 04 2013  03 41  -21.0322 26038.9 -03429.0 -07.5020 26263.7
 10 04 2013  03 42  -21.0323 26038.9 -03429.0 -07.5019 26263.7
 10 04 2013  03 43  -21.0323 26038.8 -03429.0 -07.5019 26263.6
 10 04 2013  03 44  -21.0324 26038.8 -03429.0 -07.5019 26263.6
 10 04 2013  03 45  -21.0324 26038.7 -03428.9 -07.5019 26263.5
 10 04 2013  03 46  -21.0325 26038.6 -03428.9 -07.5018 26263.4
 10 04 2013  03 47  -21.0325 26038.6 -03428.9 -07.5018 26263.4
 10 04 2013  03 48  -21.0325 26038.6 -03428.9 -07.5018 26263.4
 10 04 2013  03 49  -21.0324 26038.9 -03429.0 -07.5021 26263.7
 10 04 2013  03 50  -21.0324 26039.2 -03429.2 -07.5023 26264.0
 10 04 2013  03 51  -21.0325 26039.3 -03429.3 -07.5025 26264.2
 10 04 2013  03 52  -21.0323 26039.6 -03429.4 -07.5027 26264.5
 10 04 2013  03 53  -21.0323 26039.8 -03429.5 -07.5028 26264.7
 10 04 2013  03 54  -21.0321 26040.0 -03429.6 -07.5029 26264.9
 10 04 2013  03 55  -21.0321 26040.3 -03429.7 -07.5030 26265.2
 10 04 2013  03 56  -21.0320 26040.5 -03429.7 -07.5030 26265.4
 10 04 2013  03 57  -21.0318 26040.5 -03429.7 -07.5031 26265.4
 10 04 2013  03 58  -21.0316 26040.6 -03429.7 -07.5030 26265.5
 10 04 2013  03 59  -21.0316 26040.6 -03429.7 -07.5030 26265.5
 10 04 2013  04 00  -21.0314 26040.7 -03429.7 -07.5030 26265.6
 10 04 2013  04 01  -21.0314 26040.7 -03429.7 -07.5029 26265.6
 10 04 2013  04 02  -21.0313 26040.6 -03429.6 -07.5028 26265.4
 10 04 2013  04 03  -21.0313 26040.4 -03429.5 -07.5026 26265.2
 10 04 2013  04 04  -21.0313 26040.2 -03429.3 -07.5023 26265.0
 10 04 2013  04 05  -21.0314 26039.8 -03429.2 -07.5021 26264.6
 10 04 2013  04 06  -21.0315 26039.6 -03429.1 -07.5019 26264.5
 10 04 2013  04 07  -21.0317 26039.4 -03428.9 -07.5016 26264.1
 10 04 2013  04 08  -21.0319 26039.0 -03428.8 -07.5014 26263.8
 10 04 2013  04 09  -21.0319 26038.9 -03428.7 -07.5013 26263.7
 10 04 2013  04 10  -21.0320 26039.0 -03428.7 -07.5014 26263.8
 10 04 2013  04 11  -21.0322 26039.0 -03428.8 -07.5014 26263.8
 10 04 2013  04 12  -21.0324 26039.1 -03428.8 -07.5016 26263.9
 10 04 2013  04 13  -21.0326 26039.1 -03428.9 -07.5016 26263.9
 10 04 2013  04 14  -21.0327 26039.0 -03428.8 -07.5016 26263.8
 10 04 2013  04 15  -21.0326 26039.1 -03428.8 -07.5015 26263.8
 10 04 2013  04 16  -21.0325 26039.2 -03428.8 -07.5015 26264.0
 10 04 2013  04 17  -21.0325 26039.3 -03428.8 -07.5015 26264.1
 10 04 2013  04 18  -21.0325 26039.3 -03428.9 -07.5015 26264.1
 10 04 2013  04 19  -21.0325 26039.3 -03428.9 -07.5016 26264.1
 10 04 2013  04 20  -21.0324 26039.3 -03428.9 -07.5016 26264.1
 10 04 2013  04 21  -21.0321 26039.4 -03428.9 -07.5016 26264.2
 10 04 2013  04 22  -21.0319 26039.6 -03429.0 -07.5017 26264.4
 10 04 2013  04 23  -21.0316 26039.6 -03429.0 -07.5017 26264.4
 10 04 2013  04 24  -21.0314 26039.4 -03428.9 -07.5015 26264.2
 10 04 2013  04 25  -21.0311 26039.3 -03428.8 -07.5015 26264.1
 10 04 2013  04 26  -21.0309 26039.2 -03428.8 -07.5013 26264.0
 10 04 2013  04 27  -21.0305 26039.2 -03428.7 -07.5013 26263.9
 10 04 2013  04 28  -21.0304 26039.1 -03428.7 -07.5012 26263.9
 10 04 2013  04 29  -21.0303 26039.0 -03428.7 -07.5012 26263.7
 10 04 2013  04 30  -21.0301 26038.8 -03428.6 -07.5012 26263.6
 10 04 2013  04 31  -21.0300 26038.7 -03428.6 -07.5011 26263.5
 10 04 2013  04 32  -21.0297 26038.7 -03428.6 -07.5011 26263.4
 10 04 2013  04 33  -21.0295 26038.6 -03428.6 -07.5011 26263.3
 10 04 2013  04 34  -21.0292 26038.5 -03428.6 -07.5011 26263.3
 10 04 2013  04 35  -21.0289 26038.6 -03428.6 -07.5013 26263.4
 10 04 2013  04 36  -21.0287 26038.7 -03428.7 -07.5013 26263.4
 10 04 2013  04 37  -21.0284 26038.8 -03428.7 -07.5015 26263.5
 10 04 2013  04 38  -21.0282 26038.8 -03428.9 -07.5017 26263.6
 10 04 2013  04 39  -21.0280 26038.8 -03428.9 -07.5017 26263.6
 10 04 2013  04 40  -21.0278 26038.7 -03428.8 -07.5016 26263.5
 10 04 2013  04 41  -21.0276 26038.7 -03428.8 -07.5017 26263.5
 10 04 2013  04 42  -21.0275 26038.7 -03428.8 -07.5017 26263.5
 10 04 2013  04 43  -21.0273 26038.7 -03428.8 -07.5017 26263.4
 10 04 2013  04 44  -21.0271 26038.7 -03428.8 -07.5017 26263.5
 10 04 2013  04 45  -21.0270 26039.0 -03429.0 -07.5019 26263.8
 10 04 2013  04 46  -21.0266 26039.5 -03429.2 -07.5023 26264.3
 10 04 2013  04 47  -21.0260 26039.9 -03429.5 -07.5027 26264.8
 10 04 2013  04 48  -21.0255 26040.3 -03429.7 -07.5030 26265.1
 10 04 2013  04 49  -21.0251 26040.4 -03429.8 -07.5032 26265.3
 10 04 2013  04 50  -21.0248 26040.6 -03429.8 -07.5032 26265.5
 10 04 2013  04 51  -21.0245 26040.6 -03429.8 -07.5032 26265.5
 10 04 2013  04 52  -21.0242 26040.6 -03429.8 -07.5032 26265.5
 10 04 2013  04 53  -21.0240 26040.6 -03429.7 -07.5031 26265.5
 10 04 2013  04 54  -21.0238 26040.4 -03429.7 -07.5030 26265.3
 10 04 2013  04 55  -21.0237 26040.4 -03429.6 -07.5029 26265.3
 10 04 2013  04 56  -21.0238 26040.3 -03429.6 -07.5028 26265.2
 10 04 2013  04 57  -21.0238 26040.2 -03429.5 -07.5027 26265.0
 10 04 2013  04 58  -21.0236 26040.1 -03429.5 -07.5026 26265.0
 10 04 2013  04 59  -21.0236 26040.1 -03429.4 -07.5025 26264.9
 10 04 2013  05 00  -21.0237 26040.1 -03429.4 -07.5025 26264.9
 10 04 2013  05 01  -21.0237 26040.0 -03429.4 -07.5025 26264.8
 10 04 2013  05 02  -21.0238 26040.0 -03429.4 -07.5026 26264.9
 10 04 2013  05 03  -21.0238 26040.1 -03429.5 -07.5026 26265.0
 10 04 2013  05 04  -21.0238 26040.2 -03429.5 -07.5026 26265.0
 10 04 2013  05 05  -21.0238 26040.2 -03429.5 -07.5027 26265.1
 10 04 2013  05 06  -21.0237 26040.3 -03429.5 -07.5026 26265.1
 10 04 2013  05 07  -21.0236 26040.1 -03429.4 -07.5025 26265.0
 10 04 2013  05 08  -21.0236 26039.8 -03429.3 -07.5023 26264.7
 10 04 2013  05 09  -21.0236 26039.5 -03429.1 -07.5021 26264.3
 10 04 2013  05 10  -21.0240 26039.6 -03429.1 -07.5020 26264.4
 10 04 2013  05 11  -21.0243 26040.4 -03429.5 -07.5026 26265.2
 10 04 2013  05 12  -21.0235 26040.9 -03429.7 -07.5030 26265.8
 10 04 2013  05 13  -21.0226 26041.1 -03429.9 -07.5032 26266.0
 10 04 2013  05 14  -21.0223 26041.7 -03430.2 -07.5038 26266.7
 10 04 2013  05 15  -21.0220 26042.1 -03430.4 -07.5041 26267.1
 10 04 2013  05 16  -21.0213 26041.8 -03430.2 -07.5038 26266.7
 10 04 2013  05 17  -21.0211 26041.3 -03430.0 -07.5034 26266.2
 10 04 2013  05 18  -21.0216 26041.1 -03429.9 -07.5032 26266.0
 10 04 2013  05 19  -21.0220 26040.8 -03429.7 -07.5029 26265.7
 10 04 2013  05 20  -21.0221 26040.4 -03429.5 -07.5025 26265.2
 10 04 2013  05 21  -21.0224 26039.9 -03429.2 -07.5021 26264.7
 10 04 2013  05 22  -21.0231 26039.6 -03429.1 -07.5020 26264.4
 10 04 2013  05 23  -21.0235 26039.4 -03429.0 -07.5018 26264.3
 10 04 2013  05 24  -21.0236 26039.3 -03428.9 -07.5017 26264.1
 10 04 2013  05 25  -21.0239 26039.4 -03429.0 -07.5018 26264.2
 10 04 2013  05 26  -21.0239 26039.6 -03429.1 -07.5020 26264.4
 10 04 2013  05 27  -21.0236 26039.7 -03429.2 -07.5021 26264.5
 10 04 2013  05 28  -21.0234 26040.1 -03429.3 -07.5024 26264.9
 10 04 2013  05 29  -21.0231 26040.6 -03429.6 -07.5028 26265.5
 10 04 2013  05 30  -21.0226 26040.9 -03429.8 -07.5031 26265.7
 10 04 2013  05 31  -21.0220 26041.0 -03429.9 -07.5033 26265.9
 10 04 2013  05 32  -21.0218 26041.3 -03430.0 -07.5035 26266.2
 10 04 2013  05 33  -21.0216 26041.3 -03430.0 -07.5035 26266.2
 10 04 2013  05 34  -21.0214 26041.3 -03430.0 -07.5034 26266.2
 10 04 2013  05 35  -21.0215 26041.3 -03430.0 -07.5034 26266.2
 10 04 2013  05 36  -21.0215 26041.4 -03430.0 -07.5034 26266.4
 10 04 2013  05 37  -21.0213 26041.6 -03430.1 -07.5035 26266.5
 10 04 2013  05 38  -21.0209 26041.7 -03430.1 -07.5036 26266.6
 10 04 2013  05 39  -21.0209 26042.0 -03430.3 -07.5038 26266.9
 10 04 2013  05 40  -21.0207 26042.3 -03430.4 -07.5040 26267.2
 10 04 2013  05 41  -21.0203 26042.4 -03430.4 -07.5041 26267.4
 10 04 2013  05 42  -21.0201 26042.6 -03430.5 -07.5042 26267.6
 10 04 2013  05 43  -21.0198 26042.8 -03430.6 -07.5043 26267.8
 10 04 2013  05 44  -21.0196 26043.0 -03430.7 -07.5044 26268.0
 10 04 2013  05 45  -21.0191 26043.2 -03430.7 -07.5045 26268.2
 10 04 2013  05 46  -21.0187 26043.4 -03430.8 -07.5046 26268.4
 10 04 2013  05 47  -21.0185 26043.6 -03430.9 -07.5048 26268.6
 10 04 2013  05 48  -21.0184 26043.6 -03431.0 -07.5049 26268.6
 10 04 2013  05 49  -21.0184 26043.6 -03430.9 -07.5048 26268.6
 10 04 2013  05 50  -21.0183 26043.4 -03430.9 -07.5047 26268.4
 10 04 2013  05 51  -21.0182 26042.7 -03430.5 -07.5042 26267.7
 10 04 2013  05 52  -21.0189 26042.1 -03430.2 -07.5037 26267.1
 10 04 2013  05 53  -21.0197 26042.0 -03430.1 -07.5034 26266.9
 10 04 2013  05 54  -21.0201 26041.6 -03429.9 -07.5031 26266.5
 10 04 2013  05 55  -21.0204 26041.3 -03429.7 -07.5028 26266.2
 10 04 2013  05 56  -21.0210 26041.6 -03429.8 -07.5030 26266.5
 10 04 2013  05 57  -21.0212 26041.7 -03429.9 -07.5031 26266.6
 10 04 2013  05 58  -21.0210 26041.9 -03430.0 -07.5033 26266.8
 10 04 2013  05 59  -21.0207 26042.4 -03430.2 -07.5036 26267.3
 10 04 2013  06 00  -21.0205 26042.7 -03430.5 -07.5040 26267.7
 10 04 2013  06 01  -21.0202 26043.1 -03430.7 -07.5043 26268.1
 10 04 2013  06 02  -21.0198 26043.5 -03430.8 -07.5046 26268.5
 10 04 2013  06 03  -21.0195 26043.7 -03431.0 -07.5049 26268.8
 10 04 2013  06 04  -21.0192 26043.8 -03431.0 -07.5049 26268.8
 10 04 2013  06 05  -21.0191 26043.9 -03431.0 -07.5049 26268.9
 10 04 2013  06 06  -21.0190 26044.0 -03431.0 -07.5048 26269.0
 10 04 2013  06 07  -21.0187 26044.0 -03431.0 -07.5048 26269.0
 10 04 2013  06 08  -21.0186 26043.8 -03430.9 -07.5047 26268.8
 10 04 2013  06 09  -21.0185 26043.9 -03430.9 -07.5046 26268.9
 10 04 2013  06 10  -21.0184 26043.9 -03430.9 -07.5046 26269.0
 10 04 2013  06 11  -21.0181 26043.8 -03430.8 -07.5045 26268.8
 10 04 2013  06 12  -21.0180 26043.8 -03430.8 -07.5045 26268.8
 10 04 2013  06 13  -21.0178 26043.8 -03430.8 -07.5045 26268.9
 10 04 2013  06 14  -21.0175 26043.9 -03430.9 -07.5046 26268.9
 10 04 2013  06 15  -21.0172 26044.1 -03430.9 -07.5046 26269.1
 10 04 2013  06 16  -21.0170 26044.1 -03431.0 -07.5048 26269.2
 10 04 2013  06 17  -21.0168 26044.2 -03431.0 -07.5048 26269.3
 10 04 2013  06 18  -21.0165 26044.2 -03431.0 -07.5049 26269.2
 10 04 2013  06 19  -21.0166 26044.2 -03431.1 -07.5050 26269.2
 10 04 2013  06 20  -21.0168 26044.3 -03431.2 -07.5052 26269.4
 10 04 2013  06 21  -21.0169 26044.3 -03431.2 -07.5052 26269.4
 10 04 2013  06 22  -21.0170 26044.2 -03431.1 -07.5051 26269.2
 10 04 2013  06 23  -21.0173 26044.3 -03431.1 -07.5051 26269.3
 10 04 2013  06 24  -21.0174 26044.4 -03431.2 -07.5052 26269.5
 10 04 2013  06 25  -21.0174 26044.3 -03431.2 -07.5051 26269.3
 10 04 2013  06 26  -21.0175 26044.3 -03431.1 -07.5050 26269.4
 10 04 2013  06 27  -21.0178 26044.4 -03431.2 -07.5051 26269.4
 10 04 2013  06 28  -21.0180 26044.3 -03431.1 -07.5050 26269.4
 10 04 2013  06 29  -21.0181 26044.5 -03431.1 -07.5049 26269.5
 10 04 2013  06 30  -21.0182 26044.5 -03431.1 -07.5048 26269.5
 10 04 2013  06 31  -21.0185 26044.4 -03431.0 -07.5048 26269.4
 10 04 2013  06 32  -21.0189 26044.5 -03431.1 -07.5048 26269.5
 10 04 2013  06 33  -21.0190 26044.8 -03431.2 -07.5051 26269.8
 10 04 2013  06 34  -21.0189 26045.1 -03431.3 -07.5052 26270.1
 10 04 2013  06 35  -21.0189 26045.3 -03431.4 -07.5053 26270.3
 10 04 2013  06 36  -21.0188 26045.1 -03431.2 -07.5050 26270.2
 10 04 2013  06 37  -21.0190 26045.1 -03431.2 -07.5050 26270.2
 10 04 2013  06 38  -21.0192 26045.3 -03431.2 -07.5050 26270.3
 10 04 2013  06 39  -21.0193 26045.4 -03431.3 -07.5050 26270.4
 10 04 2013  06 40  -21.0194 26045.3 -03431.2 -07.5049 26270.4
 10 04 2013  06 41  -21.0196 26045.0 -03431.0 -07.5045 26270.0
 10 04 2013  06 42  -21.0199 26045.1 -03431.0 -07.5044 26270.1
 10 04 2013  06 43  -21.0200 26045.1 -03430.9 -07.5044 26270.1
 10 04 2013  06 44  -21.0200 26044.8 -03430.8 -07.5042 26269.8
 10 04 2013  06 45  -21.0203 26044.4 -03430.6 -07.5038 26269.4
 10 04 2013  06 46  -21.0208 26044.3 -03430.5 -07.5037 26269.3
 10 04 2013  06 47  -21.0211 26044.2 -03430.4 -07.5034 26269.1
 10 04 2013  06 48  -21.0213 26044.0 -03430.3 -07.5032 26269.0
 10 04 2013  06 49  -21.0214 26044.1 -03430.3 -07.5032 26269.0
 10 04 2013  06 50  -21.0214 26044.1 -03430.3 -07.5033 26269.1
 10 04 2013  06 51  -21.0212 26044.2 -03430.3 -07.5033 26269.1
 10 04 2013  06 52  -21.0212 26044.1 -03430.3 -07.5033 26269.1
 10 04 2013  06 53  -21.0212 26044.3 -03430.4 -07.5034 26269.2
 10 04 2013  06 54  -21.0211 26044.4 -03430.4 -07.5035 26269.3
 10 04 2013  06 55  -21.0209 26044.5 -03430.5 -07.5035 26269.4
 10 04 2013  06 56  -21.0209 26044.5 -03430.5 -07.5036 26269.4
 10 04 2013  06 57  -21.0210 26044.3 -03430.4 -07.5035 26269.2
 10 04 2013  06 58  -21.0211 26044.1 -03430.3 -07.5033 26269.0
 10 04 2013  06 59  -21.0214 26043.9 -03430.2 -07.5032 26268.8
 10 04 2013  07 00  -21.0217 26043.5 -03430.0 -07.5028 26268.4
 10 04 2013  07 01  -21.0222 26043.4 -03429.9 -07.5027 26268.2
 10 04 2013  07 02  -21.0225 26043.5 -03430.0 -07.5028 26268.4
 10 04 2013  07 03  -21.0227 26043.5 -03430.0 -07.5029 26268.4
 10 04 2013  07 04  -21.0226 26043.3 -03430.0 -07.5028 26268.2
 10 04 2013  07 05  -21.0228 26043.3 -03429.9 -07.5027 26268.2
 10 04 2013  07 06  -21.0228 26043.1 -03429.8 -07.5026 26268.0
 10 04 2013  07 07  -21.0227 26042.8 -03429.7 -07.5023 26267.7
 10 04 2013  07 08  -21.0229 26042.7 -03429.7 -07.5024 26267.6
 10 04 2013  07 09  -21.0230 26043.1 -03429.9 -07.5027 26267.9
 10 04 2013  07 10  -21.0228 26043.2 -03430.0 -07.5029 26268.1
 10 04 2013  07 11  -21.0225 26043.0 -03429.9 -07.5028 26267.9
 10 04 2013  07 12  -21.0222 26042.9 -03429.9 -07.5027 26267.8
 10 04 2013  07 13  -21.0219 26042.8 -03429.9 -07.5027 26267.7
 10 04 2013  07 14  -21.0219 26042.7 -03429.8 -07.5026 26267.5
 10 04 2013  07 15  -21.0222 26042.9 -03429.9 -07.5029 26267.8
 10 04 2013  07 16  -21.0222 26043.2 -03430.1 -07.5032 26268.1
 10 04 2013  07 17  -21.0219 26043.5 -03430.3 -07.5035 26268.4
 10 04 2013  07 18  -21.0215 26043.8 -03430.4 -07.5037 26268.8
 10 04 2013  07 19  -21.0212 26044.0 -03430.5 -07.5038 26268.9
 10 04 2013  07 20  -21.0209 26044.0 -03430.5 -07.5038 26268.9
 10 04 2013  07 21  -21.0206 26044.0 -03430.5 -07.5038 26269.0
 10 04 2013  07 22  -21.0204 26044.2 -03430.6 -07.5040 26269.2
 10 04 2013  07 23  -21.0201 26044.4 -03430.7 -07.5041 26269.4
 10 04 2013  07 24  -21.0197 26044.9 -03430.9 -07.5044 26269.9
 10 04 2013  07 25  -21.0191 26045.0 -03431.0 -07.5045 26270.0
 10 04 2013  07 26  -21.0189 26044.9 -03431.0 -07.5045 26269.9
 10 04 2013  07 27  -21.0191 26045.1 -03431.1 -07.5047 26270.1
 10 04 2013  07 28  -21.0193 26044.8 -03431.0 -07.5046 26269.9
 10 04 2013  07 29  -21.0196 26044.5 -03430.8 -07.5043 26269.5
 10 04 2013  07 30  -21.0201 26044.4 -03430.8 -07.5042 26269.4
 10 04 2013  07 31  -21.0206 26044.4 -03430.8 -07.5042 26269.3
 10 04 2013  07 32  -21.0209 26044.1 -03430.6 -07.5040 26269.1
 10 04 2013  07 33  -21.0212 26044.1 -03430.6 -07.5040 26269.1
 10 04 2013  07 34  -21.0214 26044.1 -03430.6 -07.5039 26269.1
 10 04 2013  07 35  -21.0216 26044.2 -03430.6 -07.5039 26269.1
 10 04 2013  07 36  -21.0218 26044.1 -03430.6 -07.5039 26269.1
 10 04 2013  07 37  -21.0219 26044.1 -03430.6 -07.5039 26269.1
 10 04 2013  07 38  -21.0222 26043.9 -03430.5 -07.5038 26268.9
 10 04 2013  07 39  -21.0226 26043.7 -03430.4 -07.5036 26268.6
 10 04 2013  07 40  -21.0229 26043.7 -03430.3 -07.5034 26268.6
 10 04 2013  07 41  -21.0230 26043.7 -03430.3 -07.5034 26268.6
 10 04 2013  07 42  -21.0229 26043.6 -03430.2 -07.5032 26268.6
 10 04 2013  07 43  -21.0227 26043.5 -03430.1 -07.5031 26268.4
 10 04 2013  07 44  -21.0226 26043.4 -03430.1 -07.5031 26268.3
 10 04 2013  07 45  -21.0226 26043.4 -03430.1 -07.5031 26268.3
 10 04 2013  07 46  -21.0226 26043.6 -03430.2 -07.5033 26268.5
 10 04 2013  07 47  -21.0226 26043.5 -03430.2 -07.5033 26268.5
 10 04 2013  07 48  -21.0226 26043.5 -03430.3 -07.5034 26268.5
 10 04 2013  07 49  -21.0226 26043.7 -03430.3 -07.5035 26268.6
 10 04 2013  07 50  -21.0224 26043.8 -03430.3 -07.5034 26268.7
 10 04 2013  07 51  -21.0220 26043.6 -03430.2 -07.5033 26268.5
 10 04 2013  07 52  -21.0219 26043.6 -03430.2 -07.5032 26268.5
 10 04 2013  07 53  -21.0218 26043.7 -03430.3 -07.5033 26268.7
 10 04 2013  07 54  -21.0218 26043.9 -03430.4 -07.5035 26268.8
 10 04 2013  07 55  -21.0216 26043.9 -03430.4 -07.5036 26268.9
 10 04 2013  07 56  -21.0214 26044.0 -03430.5 -07.5037 26268.9
 10 04 2013  07 57  -21.0213 26044.1 -03430.5 -07.5038 26269.0
 10 04 2013  07 58  -21.0213 26044.1 -03430.5 -07.5038 26269.0
 10 04 2013  07 59  -21.0214 26044.2 -03430.5 -07.5038 26269.1
 10 04 2013  08 00  -21.0214 26044.2 -03430.6 -07.5039 26269.2
 10 04 2013  08 01  -21.0214 26044.3 -03430.6 -07.5039 26269.3
 10 04 2013  08 02  -21.0213 26044.2 -03430.6 -07.5039 26269.2
 10 04 2013  08 03  -21.0214 26044.0 -03430.5 -07.5037 26269.0
 10 04 2013  08 04  -21.0216 26043.9 -03430.4 -07.5037 26268.9
 10 04 2013  08 05  -21.0216 26043.9 -03430.5 -07.5037 26268.9
 10 04 2013  08 06  -21.0219 26043.6 -03430.4 -07.5036 26268.6
 10 04 2013  08 07  -21.0222 26043.6 -03430.3 -07.5035 26268.5
 10 04 2013  08 08  -21.0226 26043.6 -03430.4 -07.5036 26268.5
 10 04 2013  08 09  -21.0229 26043.7 -03430.4 -07.5036 26268.7
 10 04 2013  08 10  -21.0228 26044.1 -03430.5 -07.5038 26269.0
 10 04 2013  08 11  -21.0225 26044.2 -03430.5 -07.5038 26269.2
 10 04 2013  08 12  -21.0224 26044.1 -03430.5 -07.5037 26269.1
 10 04 2013  08 13  -21.0224 26043.9 -03430.4 -07.5035 26268.8
 10 04 2013  08 14  -21.0227 26043.6 -03430.3 -07.5034 26268.5
 10 04 2013  08 15  -21.0230 26043.3 -03430.1 -07.5031 26268.2
 10 04 2013  08 16  -21.0237 26042.8 -03429.9 -07.5028 26267.7
 10 04 2013  08 17  -21.0244 26042.5 -03429.8 -07.5026 26267.4
 10 04 2013  08 18  -21.0247 26042.5 -03429.7 -07.5025 26267.3
 10 04 2013  08 19  -21.0252 26042.4 -03429.6 -07.5024 26267.2
 10 04 2013  08 20  -21.0257 26042.2 -03429.5 -07.5022 26267.0
 10 04 2013  08 21  -21.0263 26041.4 -03429.2 -07.5017 26266.2
 10 04 2013  08 22  -21.0274 26040.4 -03428.7 -07.5009 26265.2
 10 04 2013  08 23  -21.0286 26039.6 -03428.2 -07.5001 26264.3
 10 04 2013  08 24  -21.0293 26039.5 -03428.1 -07.4998 26264.1
 10 04 2013  08 25  -21.0299 26039.2 -03428.0 -07.4996 26263.9
 10 04 2013  08 26  -21.0301 26039.2 -03427.9 -07.4994 26263.9
 10 04 2013  08 27  -21.0299 26039.3 -03427.9 -07.4994 26263.9
 10 04 2013  08 28  -21.0297 26039.3 -03427.9 -07.4995 26264.0
 10 04 2013  08 29  -21.0295 26039.1 -03427.9 -07.4996 26263.7
 10 04 2013  08 30  -21.0292 26038.9 -03427.9 -07.4996 26263.6
 10 04 2013  08 31  -21.0283 26039.0 -03428.0 -07.4997 26263.6
 10 04 2013  08 32  -21.0272 26039.5 -03428.2 -07.5000 26264.2
 10 04 2013  08 33  -21.0263 26039.4 -03428.2 -07.5002 26264.1
 10 04 2013  08 34  -21.0251 26039.4 -03428.3 -07.5003 26264.1
 10 04 2013  08 35  -21.0236 26039.3 -03428.3 -07.5004 26264.1
 10 04 2013  08 36  -21.0218 26039.4 -03428.4 -07.5005 26264.1
 10 04 2013  08 37  -21.0205 26039.3 -03428.4 -07.5005 26264.0
 10 04 2013  08 38  -21.0190 26039.1 -03428.4 -07.5005 26263.8
 10 04 2013  08 39  -21.0181 26038.9 -03428.3 -07.5005 26263.6
 10 04 2013  08 40  -21.0173 26039.1 -03428.5 -07.5009 26263.8
 10 04 2013  08 41  -21.0155 26039.5 -03428.7 -07.5012 26264.2
 10 04 2013  08 42  -21.0145 26039.3 -03428.7 -07.5013 26264.1
 10 04 2013  08 43  -21.0139 26039.1 -03428.8 -07.5014 26263.9
 10 04 2013  08 44  -21.0132 26039.1 -03428.9 -07.5017 26263.8
 10 04 2013  08 45  -21.0126 26039.3 -03429.1 -07.5021 26264.1
 10 04 2013  08 46  -21.0123 26039.1 -03429.2 -07.5024 26264.0
 10 04 2013  08 47  -21.0116 26039.0 -03429.2 -07.5024 26263.8
 10 04 2013  08 48  -21.0118 26039.0 -03429.4 -07.5028 26263.9
 10 04 2013  08 49  -21.0120 26039.1 -03429.6 -07.5032 26264.0
 10 04 2013  08 50  -21.0121 26039.5 -03429.8 -07.5036 26264.4
 10 04 2013  08 51  -21.0121 26039.7 -03430.1 -07.5040 26264.6
 10 04 2013  08 52  -21.0119 26039.8 -03430.2 -07.5042 26264.7
 10 04 2013  08 53  -21.0118 26039.7 -03430.3 -07.5045 26264.7
 10 04 2013  08 54  -21.0117 26039.6 -03430.4 -07.5047 26264.6
 10 04 2013  08 55  -21.0117 26039.6 -03430.4 -07.5048 26264.6
 10 04 2013  08 56  -21.0117 26039.6 -03430.5 -07.5050 26264.6
 10 04 2013  08 57  -21.0116 26039.6 -03430.6 -07.5052 26264.6
 10 04 2013  08 58  -21.0115 26039.7 -03430.8 -07.5055 26264.8
 10 04 2013  08 59  -21.0114 26039.7 -03430.9 -07.5058 26264.8
 10 04 2013  09 00  -21.0112 26039.6 -03431.0 -07.5060 26264.7
 10 04 2013  09 01  -21.0108 26039.6 -03431.0 -07.5062 26264.7
 10 04 2013  09 02  -21.0103 26039.5 -03431.1 -07.5063 26264.6
 10 04 2013  09 03  -21.0099 26039.4 -03431.2 -07.5066 26264.5
 10 04 2013  09 04  -21.0098 26039.4 -03431.4 -07.5070 26264.5
 10 04 2013  09 05  -21.0097 26039.4 -03431.6 -07.5074 26264.5
 10 04 2013  09 06  -21.0093 26039.4 -03431.7 -07.5076 26264.5
 10 04 2013  09 07  -21.0092 26039.3 -03431.8 -07.5079 26264.5
 10 04 2013  09 08  -21.0091 26039.3 -03431.9 -07.5082 26264.5
 10 04 2013  09 09  -21.0089 26039.2 -03432.1 -07.5085 26264.4
 10 04 2013  09 10  -21.0084 26039.1 -03432.2 -07.5087 26264.3
 10 04 2013  09 11  -21.0080 26039.0 -03432.3 -07.5090 26264.2
 10 04 2013  09 12  -21.0077 26039.0 -03432.4 -07.5093 26264.2
 10 04 2013  09 13  -21.0074 26038.9 -03432.5 -07.5096 26264.2
 10 04 2013  09 14  -21.0074 26038.8 -03432.6 -07.5098 26264.1
 10 04 2013  09 15  -21.0075 26038.9 -03432.8 -07.5103 26264.2
 10 04 2013  09 16  -21.0073 26038.9 -03433.0 -07.5107 26264.2
 10 04 2013  09 17  -21.0070 26038.7 -03433.2 -07.5110 26264.1
 10 04 2013  09 18  -21.0068 26038.6 -03433.3 -07.5114 26264.0
 10 04 2013  09 19  -21.0066 26038.4 -03433.5 -07.5118 26263.8
 10 04 2013  09 20  -21.0065 26038.4 -03433.6 -07.5122 26263.8
 10 04 2013  09 21  -21.0063 26038.4 -03433.8 -07.5126 26263.9
 10 04 2013  09 22  -21.0059 26038.0 -03433.9 -07.5127 26263.5
 10 04 2013  09 23  -21.0063 26037.7 -03434.0 -07.5131 26263.2
 10 04 2013  09 24  -21.0064 26037.6 -03434.2 -07.5136 26263.1
 10 04 2013  09 25  -21.0057 26037.6 -03434.3 -07.5138 26263.1
 10 04 2013  09 26  -21.0054 26037.4 -03434.4 -07.5141 26263.0
 10 04 2013  09 27  -21.0053 26037.4 -03434.6 -07.5146 26262.9
 10 04 2013  09 28  -21.0050 26037.4 -03434.9 -07.5152 26263.0
 10 04 2013  09 29  -21.0048 26037.3 -03435.2 -07.5158 26263.0
 10 04 2013  09 30  -21.0048 26037.3 -03435.4 -07.5163 26263.0
 10 04 2013  09 31  -21.0048 26037.3 -03435.7 -07.5170 26263.0
 10 04 2013  09 32  -21.0042 26037.2 -03435.9 -07.5174 26263.0
 10 04 2013  09 33  -21.0042 26037.2 -03436.1 -07.5177 26262.9
 10 04 2013  09 34  -21.0048 26037.1 -03436.3 -07.5184 26262.8
 10 04 2013  09 35  -21.0053 26037.0 -03436.6 -07.5190 26262.8
 10 04 2013  09 36  -21.0055 26037.1 -03436.9 -07.5196 26263.0
 10 04 2013  09 37  -21.0052 26037.2 -03437.2 -07.5201 26263.1
 10 04 2013  09 38  -21.0051 26037.3 -03437.4 -07.5207 26263.2
 10 04 2013  09 39  -21.0055 26037.3 -03437.7 -07.5211 26263.2
 10 04 2013  09 40  -21.0061 26037.4 -03437.9 -07.5216 26263.3
 10 04 2013  09 41  -21.0060 26037.2 -03438.0 -07.5219 26263.2
 10 04 2013  09 42  -21.0058 26037.1 -03438.2 -07.5223 26263.2
 10 04 2013  09 43  -21.0059 26037.1 -03438.5 -07.5230 26263.1
 10 04 2013  09 44  -21.0059 26037.0 -03438.8 -07.5236 26263.1
 10 04 2013  09 45  -21.0057 26037.1 -03439.0 -07.5241 26263.2
 10 04 2013  09 46  -21.0056 26037.2 -03439.2 -07.5246 26263.3
 10 04 2013  09 47  -21.0056 26037.4 -03439.5 -07.5252 26263.6
 10 04 2013  09 48  -21.0060 26037.5 -03439.8 -07.5257 26263.7
 10 04 2013  09 49  -21.0070 26037.6 -03440.1 -07.5264 26263.9
 10 04 2013  09 50  -21.0076 26037.8 -03440.5 -07.5271 26264.1
 10 04 2013  09 51  -21.0082 26037.9 -03440.7 -07.5276 26264.2
 10 04 2013  09 52  -21.0086 26037.8 -03440.9 -07.5280 26264.2
 10 04 2013  09 53  -21.0093 26037.7 -03441.0 -07.5283 26264.1
 10 04 2013  09 54  -21.0101 26037.7 -03441.2 -07.5286 26264.1
 10 04 2013  09 55  -21.0104 26037.7 -03441.3 -07.5289 26264.2
 10 04 2013  09 56  -21.0108 26037.7 -03441.5 -07.5293 26264.2
 10 04 2013  09 57  -21.0117 26037.7 -03441.7 -07.5297 26264.2
 10 04 2013  09 58  -21.0122 26037.7 -03441.8 -07.5301 26264.2
 10 04 2013  09 59  -21.0123 26037.6 -03442.0 -07.5303 26264.1
 10 04 2013  10 00  -21.0128 26037.6 -03442.0 -07.5305 26264.1
 10 04 2013  10 01  -21.0134 26037.6 -03442.2 -07.5308 26264.2
 10 04 2013  10 02  -21.0140 26037.7 -03442.4 -07.5312 26264.2
 10 04 2013  10 03  -21.0143 26037.7 -03442.5 -07.5315 26264.2
 10 04 2013  10 04  -21.0148 26037.7 -03442.6 -07.5317 26264.3
 10 04 2013  10 05  -21.0155 26037.5 -03442.6 -07.5318 26264.1
 10 04 2013  10 06  -21.0158 26037.5 -03442.7 -07.5320 26264.2
 10 04 2013  10 07  -21.0157 26037.8 -03442.9 -07.5323 26264.4
 10 04 2013  10 08  -21.0163 26038.0 -03443.1 -07.5327 26264.6
 10 04 2013  10 09  -21.0168 26038.1 -03443.3 -07.5332 26264.8
 10 04 2013  10 10  -21.0172 26038.5 -03443.6 -07.5336 26265.3
 10 04 2013  10 11  -21.0176 26038.8 -03443.8 -07.5339 26265.6
 10 04 2013  10 12  -21.0182 26039.1 -03443.9 -07.5341 26265.9
 10 04 2013  10 13  -21.0184 26039.5 -03443.9 -07.5341 26266.2
 10 04 2013  10 14  -21.0190 26039.4 -03443.9 -07.5340 26266.2
 10 04 2013  10 15  -21.0197 26039.5 -03443.9 -07.5341 26266.2
 10 04 2013  10 16  -21.0204 26039.9 -03444.1 -07.5344 26266.7
 10 04 2013  10 17  -21.0193 26040.6 -03444.4 -07.5348 26267.5
 10 04 2013  10 18  -21.0194 26041.6 -03444.8 -07.5354 26268.4
 10 04 2013  10 19  -21.0200 26042.2 -03445.0 -07.5356 26269.1
 10 04 2013  10 20  -21.0207 26042.8 -03445.0 -07.5356 26269.7
 10 04 2013  10 21  -21.0216 26043.4 -03445.0 -07.5354 26270.2
 10 04 2013  10 22  -21.0223 26043.8 -03444.9 -07.5350 26270.7
 10 04 2013  10 23  -21.0231 26044.0 -03444.7 -07.5344 26270.8
 10 04 2013  10 24  -21.0239 26044.2 -03444.6 -07.5342 26271.0
 10 04 2013  10 25  -21.0243 26044.2 -03444.4 -07.5338 26271.0
 10 04 2013  10 26  -21.0242 26044.8 -03444.5 -07.5337 26271.5
 10 04 2013  10 27  -21.0245 26045.2 -03444.4 -07.5334 26271.9
 10 04 2013  10 28  -21.0247 26045.2 -03444.1 -07.5327 26272.0
 10 04 2013  10 29  -21.0254 26045.3 -03443.8 -07.5322 26272.0
 10 04 2013  10 30  -21.0263 26045.5 -03443.8 -07.5321 26272.2
 10 04 2013  10 31  -21.0273 26045.6 -03443.8 -07.5320 26272.3
 10 04 2013  10 32  -21.0280 26045.8 -03443.7 -07.5319 26272.5
 10 04 2013  10 33  -21.0290 26045.8 -03443.7 -07.5317 26272.5
 10 04 2013  10 34  -21.0302 26045.6 -03443.5 -07.5315 26272.3
 10 04 2013  10 35  -21.0317 26045.7 -03443.5 -07.5315 26272.3
 10 04 2013  10 36  -21.0331 26045.6 -03443.5 -07.5314 26272.3
 10 04 2013  10 37  -21.0343 26045.5 -03443.4 -07.5313 26272.2
 10 04 2013  10 38  -21.0358 26045.4 -03443.4 -07.5312 26272.0
 10 04 2013  10 39  -21.0371 26045.3 -03443.3 -07.5311 26272.0
 10 04 2013  10 40  -21.0378 26045.3 -03443.3 -07.5310 26272.0
 10 04 2013  10 41  -21.0384 26045.2 -03443.2 -07.5310 26271.8
 10 04 2013  10 42  -21.0392 26045.3 -03443.2 -07.5308 26271.9
 10 04 2013  10 43  -21.0399 26045.3 -03443.1 -07.5306 26271.9
 10 04 2013  10 44  -21.0408 26045.1 -03442.9 -07.5303 26271.6
 10 04 2013  10 45  -21.0414 26045.0 -03442.8 -07.5301 26271.5
 10 04 2013  10 46  -21.0420 26045.0 -03442.9 -07.5302 26271.6
 10 04 2013  10 47  -21.0422 26045.2 -03442.9 -07.5301 26271.8
 10 04 2013  10 48  -21.0424 26045.5 -03442.9 -07.5301 26272.1
 10 04 2013  10 49  -21.0428 26045.6 -03442.8 -07.5300 26272.1
 10 04 2013  10 50  -21.0435 26045.4 -03442.8 -07.5299 26271.9
 10 04 2013  10 51  -21.0441 26045.8 -03443.0 -07.5303 26272.4
 10 04 2013  10 52  -21.0444 26046.5 -03443.3 -07.5307 26273.1
 10 04 2013  10 53  -21.0450 26046.8 -03443.3 -07.5307 26273.4
 10 04 2013  10 54  -21.0459 26047.2 -03443.3 -07.5306 26273.9
 10 04 2013  10 55  -21.0462 26047.7 -03443.3 -07.5305 26274.3
 10 04 2013  10 56  -21.0466 26047.4 -03443.0 -07.5297 26274.0
 10 04 2013  10 57  -21.0468 26047.8 -03442.9 -07.5295 26274.4
 10 04 2013  10 58  -21.0467 26048.3 -03442.9 -07.5294 26274.9
 10 04 2013  10 59  -21.0472 26048.2 -03442.7 -07.5289 26274.7
 10 04 2013  11 00  -21.0478 26048.1 -03442.4 -07.5283 26274.6
 10 04 2013  11 01  -21.0484 26048.6 -03442.4 -07.5281 26275.1
 10 04 2013  11 02  -21.0483 26048.9 -03442.3 -07.5278 26275.4
 10 04 2013  11 03  -21.0482 26049.5 -03442.2 -07.5276 26276.0
 10 04 2013  11 04  -21.0494 26049.0 -03441.9 -07.5269 26275.4
 10 04 2013  11 05  -21.0502 26049.6 -03442.0 -07.5269 26276.0
 10 04 2013  11 06  -21.0510 26050.1 -03442.1 -07.5270 26276.5
 10 04 2013  11 07  -21.0508 26050.6 -03442.0 -07.5268 26277.1
 10 04 2013  11 08  -21.0507 26050.9 -03441.8 -07.5263 26277.3
 10 04 2013  11 09  -21.0504 26051.7 -03441.9 -07.5261 26278.1
 10 04 2013  11 10  -21.0500 26052.3 -03441.7 -07.5257 26278.7
 10 04 2013  11 11  -21.0505 26052.6 -03441.5 -07.5252 26278.9
 10 04 2013  11 12  -21.0511 26052.4 -03441.2 -07.5245 26278.7
 10 04 2013  11 13  -21.0517 26053.2 -03441.2 -07.5243 26279.5
 10 04 2013  11 14  -21.0523 26053.7 -03441.2 -07.5241 26280.0
 10 04 2013  11 15  -21.0519 26054.3 -03441.1 -07.5237 26280.6
 10 04 2013  11 16  -21.0520 26055.1 -03440.9 -07.5231 26281.3
 10 04 2013  11 17  -21.0526 26055.1 -03440.5 -07.5222 26281.3
 10 04 2013  11 18  -21.0531 26055.3 -03440.2 -07.5215 26281.4
 10 04 2013  11 19  -21.0534 26055.7 -03440.1 -07.5211 26281.8
 10 04 2013  11 20  -21.0537 26055.8 -03439.8 -07.5205 26281.9
 10 04 2013  11 21  -21.0539 26056.1 -03439.6 -07.5200 26282.2
 10 04 2013  11 22  -21.0538 26056.6 -03439.5 -07.5196 26282.6
 10 04 2013  11 23  -21.0539 26056.7 -03439.2 -07.5190 26282.7
 10 04 2013  11 24  -21.0544 26056.9 -03439.0 -07.5185 26282.9
 10 04 2013  11 25  -21.0550 26057.3 -03438.9 -07.5182 26283.2
 10 04 2013  11 26  -21.0555 26057.6 -03438.8 -07.5177 26283.5
 10 04 2013  11 27  -21.0557 26058.0 -03438.6 -07.5173 26283.9
 10 04 2013  11 28  -21.0560 26058.2 -03438.4 -07.5168 26284.1
 10 04 2013  11 29  -21.0565 26058.3 -03438.2 -07.5163 26284.2
 10 04 2013  11 30  -21.0570 26058.5 -03438.0 -07.5159 26284.3
 10 04 2013  11 31  -21.0571 26058.9 -03437.9 -07.5155 26284.7
 10 04 2013  11 32  -21.0573 26059.1 -03437.7 -07.5151 26284.9
 10 04 2013  11 33  -21.0576 26059.4 -03437.6 -07.5147 26285.1
 10 04 2013  11 34  -21.0579 26059.6 -03437.5 -07.5144 26285.4
 10 04 2013  11 35  -21.0583 26059.5 -03437.3 -07.5139 26285.2
 10 04 2013  11 36  -21.0585 26059.5 -03437.1 -07.5135 26285.2
 10 04 2013  11 37  -21.0587 26059.9 -03437.1 -07.5134 26285.6
 10 04 2013  11 38  -21.0587 26060.3 -03437.0 -07.5132 26285.9
 10 04 2013  11 39  -21.0586 26060.2 -03436.8 -07.5127 26285.9
 10 04 2013  11 40  -21.0590 26060.1 -03436.6 -07.5124 26285.7
 10 04 2013  11 41  -21.0597 26059.9 -03436.5 -07.5122 26285.5
 10 04 2013  11 42  -21.0600 26060.1 -03436.5 -07.5122 26285.7
 10 04 2013  11 43  -21.0602 26060.1 -03436.5 -07.5121 26285.7
 10 04 2013  11 44  -21.0602 26060.3 -03436.5 -07.5121 26285.9
 10 04 2013  11 45  -21.0607 26060.3 -03436.4 -07.5119 26285.9
 10 04 2013  11 46  -21.0611 26060.3 -03436.3 -07.5117 26285.9
 10 04 2013  11 47  -21.0611 26060.7 -03436.3 -07.5115 26286.3
 10 04 2013  11 48  -21.0610 26061.0 -03436.2 -07.5113 26286.6
 10 04 2013  11 49  -21.0609 26061.3 -03436.1 -07.5110 26286.8
 10 04 2013  11 50  -21.0609 26061.3 -03435.9 -07.5106 26286.8
 10 04 2013  11 51  -21.0608 26061.6 -03435.9 -07.5104 26287.1
 10 04 2013  11 52  -21.0607 26061.8 -03435.8 -07.5101 26287.3
 10 04 2013  11 53  -21.0610 26061.9 -03435.7 -07.5099 26287.4
 10 04 2013  11 54  -21.0609 26062.1 -03435.7 -07.5098 26287.6
 10 04 2013  11 55  -21.0607 26062.4 -03435.7 -07.5097 26287.9
 10 04 2013  11 56  -21.0606 26062.6 -03435.6 -07.5094 26288.0
 10 04 2013  11 57  -21.0603 26062.7 -03435.5 -07.5092 26288.1
 10 04 2013  11 58  -21.0603 26062.5 -03435.3 -07.5088 26287.9
 10 04 2013  11 59  -21.0599 26062.5 -03435.2 -07.5086 26287.9
 10 04 2013  12 00  -21.0596 26062.8 -03435.2 -07.5085 26288.3
 10 04 2013  12 01  -21.0595 26063.2 -03435.2 -07.5085 26288.6
 10 04 2013  12 02  -21.0595 26063.4 -03435.2 -07.5083 26288.8
 10 04 2013  12 03  -21.0591 26063.6 -03435.1 -07.5081 26289.0
 10 04 2013  12 04  -21.0589 26063.8 -03435.0 -07.5079 26289.1
 10 04 2013  12 05  -21.0588 26064.0 -03435.0 -07.5077 26289.4
 10 04 2013  12 06  -21.0588 26064.4 -03434.9 -07.5076 26289.8
 10 04 2013  12 07  -21.0589 26064.9 -03434.9 -07.5074 26290.3
 10 04 2013  12 08  -21.0585 26065.4 -03434.9 -07.5072 26290.7
 10 04 2013  12 09  -21.0583 26065.6 -03434.7 -07.5068 26290.9
 10 04 2013  12 10  -21.0581 26065.7 -03434.6 -07.5064 26291.0
 10 04 2013  12 11  -21.0580 26065.8 -03434.4 -07.5060 26291.1
 10 04 2013  12 12  -21.0579 26065.9 -03434.3 -07.5057 26291.2
 10 04 2013  12 13  -21.0579 26066.3 -03434.3 -07.5057 26291.6
 10 04 2013  12 14  -21.0582 26066.5 -03434.3 -07.5056 26291.8
 10 04 2013  12 15  -21.0587 26066.9 -03434.4 -07.5056 26292.1
 10 04 2013  12 16  -21.0595 26067.2 -03434.3 -07.5054 26292.5
 10 04 2013  12 17  -21.0599 26067.2 -03434.1 -07.5050 26292.5
 10 04 2013  12 18  -21.0600 26067.5 -03434.1 -07.5048 26292.7
 10 04 2013  12 19  -21.0602 26067.8 -03434.1 -07.5047 26293.1
 10 04 2013  12 20  -21.0609 26068.1 -03434.0 -07.5046 26293.3
 10 04 2013  12 21  -21.0613 26068.4 -03434.1 -07.5045 26293.7
 10 04 2013  12 22  -21.0619 26069.0 -03434.1 -07.5045 26294.3
 10 04 2013  12 23  -21.0624 26069.7 -03434.1 -07.5043 26295.0
 10 04 2013  12 24  -21.0628 26070.2 -03434.1 -07.5040 26295.4
 10 04 2013  12 25  -21.0631 26070.5 -03434.0 -07.5037 26295.7
 10 04 2013  12 26  -21.0636 26070.7 -03433.8 -07.5033 26295.9
 10 04 2013  12 27  -21.0639 26070.9 -03433.7 -07.5030 26296.0
 10 04 2013  12 28  -21.0642 26071.0 -03433.7 -07.5029 26296.1
 10 04 2013  12 29  -21.0641 26071.2 -03433.6 -07.5027 26296.3
 10 04 2013  12 30  -21.0642 26071.6 -03433.6 -07.5025 26296.7
 10 04 2013  12 31  -21.0640 26072.1 -03433.6 -07.5024 26297.3
 10 04 2013  12 32  -21.0635 26072.6 -03433.5 -07.5021 26297.7
 10 04 2013  12 33  -21.0635 26073.0 -03433.5 -07.5019 26298.1
 10 04 2013  12 34  -21.0635 26073.4 -03433.4 -07.5016 26298.5
 10 04 2013  12 35  -21.0635 26073.7 -03433.3 -07.5013 26298.8
 10 04 2013  12 36  -21.0634 26074.1 -03433.2 -07.5010 26299.2
 10 04 2013  12 37  -21.0632 26074.6 -03433.0 -07.5005 26299.6
 10 04 2013  12 38  -21.0631 26075.2 -03432.9 -07.5002 26300.2
 10 04 2013  12 39  -21.0629 26075.8 -03432.8 -07.4998 26300.8
 10 04 2013  12 40  -21.0628 26076.0 -03432.6 -07.4991 26301.0
 10 04 2013  12 41  -21.0630 26076.2 -03432.3 -07.4986 26301.1
 10 04 2013  12 42  -21.0632 26076.5 -03432.1 -07.4981 26301.4
 10 04 2013  12 43  -21.0632 26076.9 -03432.0 -07.4977 26301.8
 10 04 2013  12 44  -21.0634 26077.4 -03432.0 -07.4974 26302.2
 10 04 2013  12 45  -21.0635 26078.0 -03431.9 -07.4972 26302.9
 10 04 2013  12 46  -21.0636 26078.6 -03431.9 -07.4968 26303.5
 10 04 2013  12 47  -21.0636 26079.0 -03431.7 -07.4963 26303.9
 10 04 2013  12 48  -21.0633 26079.2 -03431.4 -07.4957 26303.9
 10 04 2013  12 49  -21.0628 26079.1 -03431.1 -07.4950 26303.8
 10 04 2013  12 50  -21.0629 26078.9 -03430.8 -07.4946 26303.6
 10 04 2013  12 51  -21.0630 26079.2 -03430.8 -07.4944 26303.9
 10 04 2013  12 52  -21.0633 26079.4 -03430.8 -07.4942 26304.1
 10 04 2013  12 53  -21.0632 26079.6 -03430.6 -07.4939 26304.3
 10 04 2013  12 54  -21.0631 26079.6 -03430.5 -07.4936 26304.3
 10 04 2013  12 55  -21.0632 26079.9 -03430.4 -07.4933 26304.5
 10 04 2013  12 56  -21.0636 26080.1 -03430.4 -07.4933 26304.7
 10 04 2013  12 57  -21.0635 26080.2 -03430.3 -07.4930 26304.9
 10 04 2013  12 58  -21.0632 26080.2 -03430.1 -07.4926 26304.8
 10 04 2013  12 59  -21.0629 26080.1 -03430.0 -07.4923 26304.7
 10 04 2013  13 00  -21.0628 26079.9 -03429.9 -07.4922 26304.5
 10 04 2013  13 01  -21.0627 26080.0 -03429.9 -07.4922 26304.6
 10 04 2013  13 02  -21.0624 26080.4 -03430.0 -07.4924 26305.0
 10 04 2013  13 03  -21.0620 26081.0 -03430.1 -07.4923 26305.6
 10 04 2013  13 04  -21.0616 26081.2 -03430.0 -07.4920 26305.8
 10 04 2013  13 05  -21.0613 26081.3 -03429.9 -07.4918 26305.9
 10 04 2013  13 06  -21.0612 26081.5 -03429.8 -07.4917 26306.0
 10 04 2013  13 07  -21.0609 26081.8 -03429.8 -07.4916 26306.4
 10 04 2013  13 08  -21.0607 26082.1 -03429.8 -07.4915 26306.6
 10 04 2013  13 09  -21.0607 26082.3 -03429.8 -07.4914 26306.8
 10 04 2013  13 10  -21.0610 26082.3 -03429.8 -07.4913 26306.8
 10 04 2013  13 11  -21.0611 26082.2 -03429.7 -07.4911 26306.7
 10 04 2013  13 12  -21.0614 26082.4 -03429.7 -07.4912 26306.9
 10 04 2013  13 13  -21.0618 26082.8 -03429.9 -07.4914 26307.3
 10 04 2013  13 14  -21.0617 26083.3 -03430.0 -07.4915 26307.9
 10 04 2013  13 15  -21.0618 26083.8 -03430.0 -07.4914 26308.3
 10 04 2013  13 16  -21.0618 26084.2 -03430.0 -07.4913 26308.7
 10 04 2013  13 17  -21.0617 26084.6 -03430.0 -07.4910 26309.1
 10 04 2013  13 18  -21.0617 26085.1 -03429.9 -07.4908 26309.6
 10 04 2013  13 19  -21.0617 26085.4 -03429.8 -07.4905 26310.0
 10 04 2013  13 20  -21.0620 26085.9 -03429.8 -07.4904 26310.4
 10 04 2013  13 21  -21.0626 26086.2 -03429.8 -07.4902 26310.8
 10 04 2013  13 22  -21.0629 26086.5 -03429.6 -07.4898 26311.0
 10 04 2013  13 23  -21.0630 26086.9 -03429.6 -07.4895 26311.3
 10 04 2013  13 24  -21.0632 26087.6 -03429.6 -07.4894 26312.0
 10 04 2013  13 25  -21.0634 26088.3 -03429.6 -07.4891 26312.8
 10 04 2013  13 26  -21.0634 26089.0 -03429.4 -07.4887 26313.5
 10 04 2013  13 27  -21.0637 26089.6 -03429.3 -07.4881 26314.0
 10 04 2013  13 28  -21.0640 26089.8 -03428.9 -07.4873 26314.1
 10 04 2013  13 29  -21.0648 26090.0 -03428.6 -07.4865 26314.4
 10 04 2013  13 30  -21.0657 26090.2 -03428.4 -07.4861 26314.5
 10 04 2013  13 31  -21.0645 26090.4 -03428.1 -07.4853 26314.6
 10 04 2013  13 32  -21.0636 26090.3 -03427.8 -07.4847 26314.5
 10 04 2013  13 33  -21.0634 26090.2 -03427.6 -07.4844 26314.4
 10 04 2013  13 34  -21.0635 26090.3 -03427.5 -07.4842 26314.5
 10 04 2013  13 35  -21.0634 26090.9 -03427.6 -07.4841 26315.0
 10 04 2013  13 36  -21.0631 26091.4 -03427.6 -07.4839 26315.6
 10 04 2013  13 37  -21.0627 26092.0 -03427.5 -07.4837 26316.2
 10 04 2013  13 38  -21.0625 26092.8 -03427.5 -07.4835 26316.9
 10 04 2013  13 39  -21.0623 26093.3 -03427.4 -07.4830 26317.4
 10 04 2013  13 40  -21.0619 26093.5 -03427.2 -07.4825 26317.6
 10 04 2013  13 41  -21.0618 26093.6 -03426.9 -07.4819 26317.7
 10 04 2013  13 42  -21.0617 26093.4 -03426.6 -07.4812 26317.4
 10 04 2013  13 43  -21.0614 26092.5 -03426.1 -07.4804 26316.5
 10 04 2013  13 44  -21.0612 26091.6 -03425.7 -07.4798 26315.5
 10 04 2013  13 45  -21.0610 26090.9 -03425.4 -07.4795 26314.8
 10 04 2013  13 46  -21.0610 26090.2 -03425.2 -07.4793 26314.1
 10 04 2013  13 47  -21.0610 26089.4 -03425.0 -07.4791 26313.2
 10 04 2013  13 48  -21.0609 26088.6 -03424.9 -07.4790 26312.4
 10 04 2013  13 49  -21.0607 26087.8 -03424.8 -07.4790 26311.7
 10 04 2013  13 50  -21.0603 26087.2 -03424.7 -07.4790 26311.0
 10 04 2013  13 51  -21.0599 26086.6 -03424.7 -07.4792 26310.5
 10 04 2013  13 52  -21.0595 26086.3 -03424.8 -07.4794 26310.1
 10 04 2013  13 53  -21.0591 26086.2 -03424.9 -07.4797 26310.1
 10 04 2013  13 54  -21.0588 26086.4 -03425.1 -07.4801 26310.3
 10 04 2013  13 55  -21.0584 26086.5 -03425.1 -07.4801 26310.4
 10 04 2013  13 56  -21.0577 26086.7 -03425.2 -07.4801 26310.6
 10 04 2013  13 57  -21.0574 26086.9 -03425.2 -07.4801 26310.8
 10 04 2013  13 58  -21.0570 26087.3 -03425.2 -07.4799 26311.2
 10 04 2013  13 59  -21.0565 26087.4 -03425.0 -07.4796 26311.3
 10 04 2013  14 00  -21.0562 26087.8 -03425.0 -07.4793 26311.7
 10 04 2013  14 01  -21.0559 26088.1 -03424.8 -07.4789 26312.0
 10 04 2013  14 02  -21.0555 26088.3 -03424.6 -07.4785 26312.1
 10 04 2013  14 03  -21.0550 26088.6 -03424.5 -07.4780 26312.4
 10 04 2013  14 04  -21.0543 26088.6 -03424.2 -07.4774 26312.4
 10 04 2013  14 05  -21.0537 26088.5 -03424.0 -07.4770 26312.3
 10 04 2013  14 06  -21.0531 26088.3 -03423.7 -07.4765 26312.0
 10 04 2013  14 07  -21.0525 26087.9 -03423.4 -07.4760 26311.5
 10 04 2013  14 08  -21.0522 26087.9 -03423.4 -07.4759 26311.5
 10 04 2013  14 09  -21.0517 26087.6 -03423.2 -07.4756 26311.2
 10 04 2013  14 10  -21.0513 26087.6 -03423.2 -07.4756 26311.3
 10 04 2013  14 11  -21.0508 26087.2 -03423.0 -07.4753 26310.8
 10 04 2013  14 12  -21.0503 26087.1 -03423.0 -07.4752 26310.7
 10 04 2013  14 13  -21.0498 26087.0 -03423.0 -07.4753 26310.6
 10 04 2013  14 14  -21.0489 26086.4 -03422.8 -07.4751 26309.9
 10 04 2013  14 15  -21.0484 26086.1 -03422.9 -07.4753 26309.7
 10 04 2013  14 16  -21.0478 26085.9 -03423.0 -07.4756 26309.5
 10 04 2013  14 17  -21.0473 26086.0 -03423.2 -07.4760 26309.6
 10 04 2013  14 18  -21.0472 26086.3 -03423.4 -07.4764 26309.9
 10 04 2013  14 19  -21.0473 26086.6 -03423.6 -07.4768 26310.3
 10 04 2013  14 20  -21.0472 26087.1 -03423.8 -07.4771 26310.9
 10 04 2013  14 21  -21.0475 26087.4 -03423.9 -07.4772 26311.1
 10 04 2013  14 22  -21.0473 26087.2 -03423.8 -07.4770 26310.9
 10 04 2013  14 23  -21.0473 26086.8 -03423.6 -07.4767 26310.5
 10 04 2013  14 24  -21.0475 26088.0 -03424.0 -07.4772 26311.8
 10 04 2013  14 25  -21.0484 26088.7 -03424.1 -07.4772 26312.5
 10 04 2013  14 26  -21.0476 26088.6 -03423.8 -07.4765 26312.3
 10 04 2013  14 27  -21.0464 26087.6 -03423.3 -07.4758 26311.2
 10 04 2013  14 28  -21.0460 26087.3 -03423.4 -07.4761 26310.9
 10 04 2013  14 29  -21.0462 26087.5 -03423.6 -07.4765 26311.2
 10 04 2013  14 30  -21.0463 26088.2 -03423.9 -07.4769 26311.9
 10 04 2013  14 31  -21.0463 26088.9 -03424.1 -07.4771 26312.6
 10 04 2013  14 32  -21.0464 26089.4 -03424.1 -07.4771 26313.1
 10 04 2013  14 33  -21.0462 26089.7 -03424.1 -07.4769 26313.5
 10 04 2013  14 34  -21.0461 26089.9 -03424.0 -07.4766 26313.6
 10 04 2013  14 35  -21.0462 26089.8 -03423.8 -07.4763 26313.5
 10 04 2013  14 36  -21.0462 26089.5 -03423.6 -07.4760 26313.2
 10 04 2013  14 37  -21.0462 26089.1 -03423.5 -07.4758 26312.8
 10 04 2013  14 38  -21.0465 26089.1 -03423.5 -07.4758 26312.7
 10 04 2013  14 39  -21.0470 26089.2 -03423.6 -07.4761 26312.9
 10 04 2013  14 40  -21.0474 26089.4 -03423.7 -07.4762 26313.1
 10 04 2013  14 41  -21.0478 26089.5 -03423.7 -07.4762 26313.2
 10 04 2013  14 42  -21.0482 26089.3 -03423.6 -07.4761 26313.0
 10 04 2013  14 43  -21.0486 26089.2 -03423.6 -07.4760 26312.9
 10 04 2013  14 44  -21.0490 26089.1 -03423.6 -07.4760 26312.7
 10 04 2013  14 45  -21.0495 26089.1 -03423.7 -07.4761 26312.8
 10 04 2013  14 46  -21.0501 26089.3 -03423.8 -07.4763 26313.0
 10 04 2013  14 47  -21.0506 26089.6 -03423.8 -07.4764 26313.3
 10 04 2013  14 48  -21.0510 26089.9 -03423.8 -07.4763 26313.6
 10 04 2013  14 49  -21.0512 26089.9 -03423.8 -07.4762 26313.6
 10 04 2013  14 50  -21.0515 26089.9 -03423.7 -07.4760 26313.6
 10 04 2013  14 51  -21.0518 26090.0 -03423.7 -07.4759 26313.7
 10 04 2013  14 52  -21.0523 26090.1 -03423.6 -07.4757 26313.7
 10 04 2013  14 53  -21.0528 26089.9 -03423.5 -07.4755 26313.5
 10 04 2013  14 54  -21.0533 26089.6 -03423.4 -07.4754 26313.3
 10 04 2013  14 55  -21.0539 26089.5 -03423.3 -07.4753 26313.1
 10 04 2013  14 56  -21.0544 26089.5 -03423.3 -07.4753 26313.1
 10 04 2013  14 57  -21.0547 26089.3 -03423.3 -07.4753 26312.9
 10 04 2013  14 58  -21.0555 26089.2 -03423.4 -07.4757 26312.9
 10 04 2013  14 59  -21.0562 26089.3 -03423.5 -07.4758 26313.0
 10 04 2013  15 00  -21.0568 26089.5 -03423.7 -07.4761 26313.1
 10 04 2013  15 01  -21.0571 26089.7 -03423.7 -07.4761 26313.3
 10 04 2013  15 02  -21.0581 26089.7 -03423.8 -07.4763 26313.4
 10 04 2013  15 03  -21.0589 26090.0 -03424.0 -07.4765 26313.7
 10 04 2013  15 04  -21.0598 26090.3 -03424.1 -07.4767 26314.1
 10 04 2013  15 05  -21.0604 26090.5 -03424.1 -07.4766 26314.3
 10 04 2013  15 06  -21.0611 26090.7 -03424.1 -07.4766 26314.4
 10 04 2013  15 07  -21.0618 26090.9 -03424.1 -07.4767 26314.6
 10 04 2013  15 08  -21.0624 26091.1 -03424.2 -07.4767 26314.8
 10 04 2013  15 09  -21.0631 26091.1 -03424.2 -07.4767 26314.8
 10 04 2013  15 10  -21.0635 26090.9 -03424.1 -07.4765 26314.6
 10 04 2013  15 11  -21.0639 26090.6 -03424.0 -07.4764 26314.3
 10 04 2013  15 12  -21.0643 26090.5 -03424.1 -07.4766 26314.3
 10 04 2013  15 13  -21.0652 26091.1 -03424.4 -07.4772 26314.8
 10 04 2013  15 14  -21.0660 26091.7 -03424.7 -07.4776 26315.4
 10 04 2013  15 15  -21.0665 26092.1 -03424.8 -07.4778 26315.9
 10 04 2013  15 16  -21.0671 26092.6 -03425.0 -07.4780 26316.4
 10 04 2013  15 17  -21.0678 26092.7 -03424.9 -07.4779 26316.6
 10 04 2013  15 18  -21.0682 26092.7 -03424.8 -07.4777 26316.5
 10 04 2013  15 19  -21.0684 26092.6 -03424.7 -07.4775 26316.4
 10 04 2013  15 20  -21.0687 26092.6 -03424.7 -07.4774 26316.3
 10 04 2013  15 21  -21.0690 26092.5 -03424.6 -07.4773 26316.3
 10 04 2013  15 22  -21.0692 26092.4 -03424.5 -07.4771 26316.2
 10 04 2013  15 23  -21.0693 26092.1 -03424.4 -07.4769 26315.8
 10 04 2013  15 24  -21.0697 26092.0 -03424.4 -07.4770 26315.7
 10 04 2013  15 25  -21.0701 26092.1 -03424.6 -07.4773 26315.9
 10 04 2013  15 26  -21.0706 26092.2 -03424.7 -07.4775 26316.0
 10 04 2013  15 27  -21.0713 26092.3 -03424.8 -07.4776 26316.1
 10 04 2013  15 28  -21.0718 26092.6 -03424.8 -07.4777 26316.4
 10 04 2013  15 29  -21.0723 26092.8 -03424.8 -07.4777 26316.6
 10 04 2013  15 30  -21.0728 26092.7 -03424.8 -07.4775 26316.5
 10 04 2013  15 31  -21.0732 26092.7 -03424.7 -07.4773 26316.5
 10 04 2013  15 32  -21.0736 26092.4 -03424.5 -07.4770 26316.2
 10 04 2013  15 33  -21.0738 26092.1 -03424.4 -07.4768 26315.9
 10 04 2013  15 34  -21.0741 26092.0 -03424.4 -07.4768 26315.8
 10 04 2013  15 35  -21.0745 26091.9 -03424.3 -07.4768 26315.7
 10 04 2013  15 36  -21.0749 26091.7 -03424.2 -07.4767 26315.5
 10 04 2013  15 37  -21.0753 26091.8 -03424.3 -07.4767 26315.5
 10 04 2013  15 38  -21.0756 26091.6 -03424.1 -07.4765 26315.3
 10 04 2013  15 39  -21.0759 26091.4 -03424.1 -07.4765 26315.2
 10 04 2013  15 40  -21.0763 26091.3 -03424.1 -07.4765 26315.0
 10 04 2013  15 41  -21.0764 26091.1 -03424.0 -07.4764 26314.8
 10 04 2013  15 42  -21.0766 26090.9 -03424.0 -07.4763 26314.6
 10 04 2013  15 43  -21.0771 26090.9 -03424.0 -07.4764 26314.6
 10 04 2013  15 44  -21.0775 26090.8 -03423.9 -07.4762 26314.5
 10 04 2013  15 45  -21.0778 26090.7 -03423.8 -07.4761 26314.4
 10 04 2013  15 46  -21.0783 26090.6 -03423.8 -07.4761 26314.3
 10 04 2013  15 47  -21.0786 26090.7 -03423.8 -07.4760 26314.4
 10 04 2013  15 48  -21.0788 26090.7 -03423.7 -07.4758 26314.3
 10 04 2013  15 49  -21.0790 26090.5 -03423.5 -07.4754 26314.1
 10 04 2013  15 50  -21.0790 26090.2 -03423.3 -07.4750 26313.8
 10 04 2013  15 51  -21.0789 26089.8 -03423.0 -07.4746 26313.4
 10 04 2013  15 52  -21.0788 26089.5 -03422.9 -07.4744 26313.1
 10 04 2013  15 53  -21.0790 26089.3 -03422.8 -07.4743 26312.9
 10 04 2013  15 54  -21.0789 26088.9 -03422.6 -07.4740 26312.4
 10 04 2013  15 55  -21.0788 26088.6 -03422.5 -07.4738 26312.1
 10 04 2013  15 56  -21.0791 26088.3 -03422.5 -07.4738 26311.9
 10 04 2013  15 57  -21.0793 26088.1 -03422.4 -07.4736 26311.6
 10 04 2013  15 58  -21.0793 26088.0 -03422.4 -07.4737 26311.5
 10 04 2013  15 59  -21.0795 26088.1 -03422.4 -07.4738 26311.7
 10 04 2013  16 00  -21.0797 26088.0 -03422.3 -07.4736 26311.5
 10 04 2013  16 01  -21.0795 26087.6 -03422.1 -07.4732 26311.1
 10 04 2013  16 02  -21.0793 26087.5 -03422.0 -07.4730 26311.0
 10 04 2013  16 03  -21.0792 26087.2 -03421.8 -07.4728 26310.7
 10 04 2013  16 04  -21.0790 26087.1 -03421.8 -07.4726 26310.5
 10 04 2013  16 05  -21.0787 26086.9 -03421.7 -07.4726 26310.3
 10 04 2013  16 06  -21.0786 26086.8 -03421.7 -07.4726 26310.2
 10 04 2013  16 07  -21.0786 26086.8 -03421.6 -07.4725 26310.2
 10 04 2013  16 08  -21.0783 26086.6 -03421.5 -07.4723 26310.0
 10 04 2013  16 09  -21.0781 26086.6 -03421.5 -07.4722 26310.0
 10 04 2013  16 10  -21.0781 26086.8 -03421.6 -07.4723 26310.2
 10 04 2013  16 11  -21.0781 26087.1 -03421.6 -07.4722 26310.6
 10 04 2013  16 12  -21.0780 26087.3 -03421.5 -07.4720 26310.7
 10 04 2013  16 13  -21.0778 26087.3 -03421.3 -07.4716 26310.7
 10 04 2013  16 14  -21.0776 26087.1 -03421.1 -07.4712 26310.4
 10 04 2013  16 15  -21.0775 26087.0 -03420.9 -07.4708 26310.4
 10 04 2013  16 16  -21.0770 26086.8 -03420.7 -07.4704 26310.2
 10 04 2013  16 17  -21.0763 26086.6 -03420.6 -07.4702 26309.9
 10 04 2013  16 18  -21.0761 26086.8 -03420.7 -07.4704 26310.1
 10 04 2013  16 19  -21.0763 26087.0 -03420.6 -07.4702 26310.3
 10 04 2013  16 20  -21.0762 26087.1 -03420.5 -07.4699 26310.4
 10 04 2013  16 21  -21.0760 26087.0 -03420.2 -07.4693 26310.2
 10 04 2013  16 22  -21.0758 26086.9 -03420.0 -07.4689 26310.1
 10 04 2013  16 23  -21.0754 26086.4 -03419.7 -07.4683 26309.6
 10 04 2013  16 24  -21.0753 26086.1 -03419.4 -07.4679 26309.2
 10 04 2013  16 25  -21.0755 26085.9 -03419.3 -07.4677 26309.0
 10 04 2013  16 26  -21.0758 26085.6 -03419.2 -07.4675 26308.8
 10 04 2013  16 27  -21.0759 26085.2 -03419.0 -07.4673 26308.3
 10 04 2013  16 28  -21.0758 26084.6 -03418.9 -07.4671 26307.7
 10 04 2013  16 29  -21.0759 26084.2 -03418.9 -07.4672 26307.4
 10 04 2013  16 30  -21.0763 26084.2 -03419.0 -07.4676 26307.3
 10 04 2013  16 31  -21.0769 26084.4 -03419.2 -07.4679 26307.5
 10 04 2013  16 32  -21.0774 26084.5 -03419.3 -07.4681 26307.6
 10 04 2013  16 33  -21.0777 26084.3 -03419.3 -07.4680 26307.5
 10 04 2013  16 34  -21.0780 26084.2 -03419.2 -07.4680 26307.4
 10 04 2013  16 35  -21.0783 26084.1 -03419.2 -07.4679 26307.3
 10 04 2013  16 36  -21.0789 26084.0 -03419.1 -07.4677 26307.1
 10 04 2013  16 37  -21.0792 26083.6 -03418.9 -07.4675 26306.7
 10 04 2013  16 38  -21.0793 26083.2 -03418.8 -07.4673 26306.3
 10 04 2013  16 39  -21.0797 26082.8 -03418.8 -07.4674 26305.9
 10 04 2013  16 40  -21.0803 26082.4 -03418.7 -07.4674 26305.5
 10 04 2013  16 41  -21.0808 26082.1 -03418.7 -07.4674 26305.1
 10 04 2013  16 42  -21.0813 26081.8 -03418.6 -07.4674 26304.9
 10 04 2013  16 43  -21.0820 26081.7 -03418.7 -07.4675 26304.8
 10 04 2013  16 44  -21.0827 26081.5 -03418.6 -07.4673 26304.5
 10 04 2013  16 45  -21.0833 26081.2 -03418.4 -07.4671 26304.3
 10 04 2013  16 46  -21.0839 26081.1 -03418.4 -07.4670 26304.2
 10 04 2013  16 47  -21.0844 26080.9 -03418.2 -07.4667 26304.0
 10 04 2013  16 48  -21.0846 26080.4 -03417.9 -07.4662 26303.4
 10 04 2013  16 49  -21.0849 26080.0 -03417.7 -07.4658 26303.0
 10 04 2013  16 50  -21.0854 26079.8 -03417.6 -07.4657 26302.8
 10 04 2013  16 51  -21.0864 26079.9 -03417.6 -07.4656 26302.8
 10 04 2013  16 52  -21.0870 26079.9 -03417.5 -07.4654 26302.9
 10 04 2013  16 53  -21.0874 26079.8 -03417.3 -07.4650 26302.7
 10 04 2013  16 54  -21.0877 26079.6 -03417.0 -07.4644 26302.5
 10 04 2013  16 55  -21.0880 26079.5 -03416.7 -07.4639 26302.4
 10 04 2013  16 56  -21.0882 26079.4 -03416.5 -07.4633 26302.3
 10 04 2013  16 57  -21.0882 26079.2 -03416.1 -07.4627 26302.0
 10 04 2013  16 58  -21.0882 26079.0 -03415.8 -07.4620 26301.7
 10 04 2013  16 59  -21.0882 26078.7 -03415.5 -07.4614 26301.4
 10 04 2013  17 00  -21.0879 26078.2 -03415.1 -07.4607 26300.9
 10 04 2013  17 01  -21.0875 26077.5 -03414.6 -07.4599 26300.1
 10 04 2013  17 02  -21.0873 26077.0 -03414.3 -07.4593 26299.5
 10 04 2013  17 03  -21.0871 26076.7 -03414.1 -07.4589 26299.2
 10 04 2013  17 04  -21.0866 26076.4 -03413.8 -07.4584 26298.9
 10 04 2013  17 05  -21.0860 26076.0 -03413.4 -07.4578 26298.4
 10 04 2013  17 06  -21.0854 26075.5 -03413.1 -07.4573 26297.9
 10 04 2013  17 07  -21.0846 26074.9 -03412.8 -07.4568 26297.3
 10 04 2013  17 08  -21.0842 26074.3 -03412.5 -07.4563 26296.7
 10 04 2013  17 09  -21.0836 26073.6 -03412.3 -07.4560 26296.0
 10 04 2013  17 10  -21.0832 26073.2 -03412.1 -07.4558 26295.5
 10 04 2013  17 11  -21.0830 26073.0 -03412.2 -07.4559 26295.3
 10 04 2013  17 12  -21.0827 26072.6 -03412.0 -07.4557 26294.9
 10 04 2013  17 13  -21.0822 26072.4 -03412.0 -07.4556 26294.7
 10 04 2013  17 14  -21.0819 26072.3 -03412.0 -07.4557 26294.6
 10 04 2013  17 15  -21.0815 26071.9 -03411.9 -07.4557 26294.2
 10 04 2013  17 16  -21.0811 26071.4 -03411.8 -07.4555 26293.7
 10 04 2013  17 17  -21.0808 26071.0 -03411.7 -07.4554 26293.3
 10 04 2013  17 18  -21.0806 26070.9 -03411.8 -07.4556 26293.2
 10 04 2013  17 19  -21.0800 26070.9 -03411.9 -07.4559 26293.2
 10 04 2013  17 20  -21.0796 26071.1 -03412.1 -07.4562 26293.4
 10 04 2013  17 21  -21.0792 26070.9 -03412.1 -07.4562 26293.2
 10 04 2013  17 22  -21.0787 26070.7 -03412.1 -07.4563 26293.0
 10 04 2013  17 23  -21.0785 26070.9 -03412.2 -07.4566 26293.3
 10 04 2013  17 24  -21.0781 26070.9 -03412.2 -07.4566 26293.2
 10 04 2013  17 25  -21.0776 26070.5 -03412.1 -07.4564 26292.8
 10 04 2013  17 26  -21.0772 26070.0 -03411.9 -07.4561 26292.4
 10 04 2013  17 27  -21.0765 26069.7 -03411.7 -07.4559 26292.0
 10 04 2013  17 28  -21.0758 26069.3 -03411.7 -07.4559 26291.6
 10 04 2013  17 29  -21.0751 26069.0 -03411.7 -07.4561 26291.3
 10 04 2013  17 30  -21.0746 26069.0 -03412.0 -07.4566 26291.4
 10 04 2013  17 31  -21.0743 26069.3 -03412.3 -07.4572 26291.7
 10 04 2013  17 32  -21.0739 26069.5 -03412.5 -07.4575 26291.9
 10 04 2013  17 33  -21.0734 26069.5 -03412.5 -07.4577 26291.9
 10 04 2013  17 34  -21.0729 26069.3 -03412.5 -07.4576 26291.7
 10 04 2013  17 35  -21.0724 26068.9 -03412.3 -07.4574 26291.2
 10 04 2013  17 36  -21.0716 26068.1 -03412.1 -07.4571 26290.5
 10 04 2013  17 37  -21.0709 26067.5 -03412.0 -07.4571 26289.8
 10 04 2013  17 38  -21.0704 26067.3 -03412.2 -07.4576 26289.7
 10 04 2013  17 39  -21.0702 26067.3 -03412.4 -07.4580 26289.7
 10 04 2013  17 40  -21.0699 26067.3 -03412.5 -07.4582 26289.7
 10 04 2013  17 41  -21.0697 26067.4 -03412.7 -07.4585 26289.8
 10 04 2013  17 42  -21.0696 26067.3 -03412.7 -07.4586 26289.8
 10 04 2013  17 43  -21.0691 26067.0 -03412.5 -07.4584 26289.4
 10 04 2013  17 44  -21.0688 26066.6 -03412.4 -07.4583 26289.0
 10 04 2013  17 45  -21.0685 26066.1 -03412.3 -07.4580 26288.5
 10 04 2013  17 46  -21.0677 26065.6 -03412.2 -07.4580 26288.0
 10 04 2013  17 47  -21.0674 26065.4 -03412.2 -07.4582 26287.8
 10 04 2013  17 48  -21.0671 26065.4 -03412.4 -07.4585 26287.8
 10 04 2013  17 49  -21.0667 26065.2 -03412.4 -07.4587 26287.6
 10 04 2013  17 50  -21.0663 26064.9 -03412.5 -07.4589 26287.3
 10 04 2013  17 51  -21.0662 26064.7 -03412.6 -07.4592 26287.2
 10 04 2013  17 52  -21.0656 26064.1 -03412.5 -07.4590 26286.5
 10 04 2013  17 53  -21.0653 26063.9 -03412.6 -07.4594 26286.4
 10 04 2013  17 54  -21.0653 26064.0 -03412.9 -07.4600 26286.5
 10 04 2013  17 55  -21.0654 26064.1 -03413.2 -07.4607 26286.7
 10 04 2013  17 56  -21.0659 26064.6 -03413.6 -07.4614 26287.2
 10 04 2013  17 57  -21.0660 26064.7 -03413.7 -07.4616 26287.3
 10 04 2013  17 58  -21.0655 26064.2 -03413.4 -07.4611 26286.8
 10 04 2013  17 59  -21.0651 26064.1 -03413.4 -07.4610 26286.7
 10 04 2013  18 00  -21.0649 26064.0 -03413.4 -07.4610 26286.6
 10 04 2013  18 01  -21.0650 26064.7 -03413.7 -07.4616 26287.3
 10 04 2013  18 02  -21.0647 26064.8 -03413.7 -07.4615 26287.4
 10 04 2013  18 03  -21.0644 26064.4 -03413.6 -07.4613 26287.0
 10 04 2013  18 04  -21.0638 26064.2 -03413.7 -07.4616 26286.8
 10 04 2013  18 05  -21.0635 26063.8 -03413.9 -07.4622 26286.4
 10 04 2013  18 06  -21.0632 26063.4 -03414.0 -07.4627 26286.0
 10 04 2013  18 07  -21.0637 26063.8 -03414.5 -07.4635 26286.5
 10 04 2013  18 08  -21.0642 26064.1 -03414.9 -07.4642 26286.9
 10 04 2013  18 09  -21.0640 26064.3 -03415.2 -07.4648 26287.1
 10 04 2013  18 10  -21.0641 26064.7 -03415.6 -07.4656 26287.5
 10 04 2013  18 11  -21.0641 26065.1 -03415.8 -07.4659 26288.0
 10 04 2013  18 12  -21.0637 26065.1 -03415.6 -07.4655 26288.0
 10 04 2013  18 13  -21.0629 26064.6 -03415.2 -07.4648 26287.4
 10 04 2013  18 14  -21.0623 26063.6 -03414.7 -07.4640 26286.3
 10 04 2013  18 15  -21.0614 26062.1 -03414.3 -07.4636 26284.8
 10 04 2013  18 16  -21.0609 26061.3 -03414.4 -07.4640 26284.0
 10 04 2013  18 17  -21.0608 26061.0 -03414.8 -07.4651 26283.8
 10 04 2013  18 18  -21.0606 26061.4 -03415.5 -07.4663 26284.3
 10 04 2013  18 19  -21.0605 26061.9 -03416.0 -07.4673 26284.8
 10 04 2013  18 20  -21.0606 26061.8 -03416.2 -07.4679 26284.8
 10 04 2013  18 21  -21.0606 26061.5 -03416.3 -07.4681 26284.4
 10 04 2013  18 22  -21.0606 26060.9 -03416.3 -07.4682 26283.9
 10 04 2013  18 23  -21.0603 26060.3 -03416.3 -07.4684 26283.2
 10 04 2013  18 24  -21.0601 26059.9 -03416.5 -07.4690 26282.9
 10 04 2013  18 25  -21.0600 26059.8 -03416.9 -07.4699 26282.9
 10 04 2013  18 26  -21.0601 26059.9 -03417.4 -07.4708 26283.0
 10 04 2013  18 27  -21.0602 26059.8 -03417.6 -07.4714 26283.0
 10 04 2013  18 28  -21.0602 26059.5 -03417.7 -07.4717 26282.7
 10 04 2013  18 29  -21.0601 26059.4 -03417.9 -07.4721 26282.6
 10 04 2013  18 30  -21.0600 26059.0 -03417.9 -07.4722 26282.2
 10 04 2013  18 31  -21.0600 26058.4 -03417.8 -07.4723 26281.6
 10 04 2013  18 32  -21.0597 26058.0 -03417.9 -07.4725 26281.2
 10 04 2013  18 33  -21.0595 26057.9 -03418.1 -07.4731 26281.1
 10 04 2013  18 34  -21.0595 26057.9 -03418.5 -07.4738 26281.2
 10 04 2013  18 35  -21.0594 26057.9 -03418.7 -07.4743 26281.2
 10 04 2013  18 36  -21.0594 26057.8 -03418.9 -07.4747 26281.1
 10 04 2013  18 37  -21.0594 26057.9 -03419.0 -07.4751 26281.2
 10 04 2013  18 38  -21.0594 26058.0 -03419.3 -07.4755 26281.3
 10 04 2013  18 39  -21.0593 26058.0 -03419.5 -07.4759 26281.4
 10 04 2013  18 40  -21.0593 26058.0 -03419.6 -07.4763 26281.5
 10 04 2013  18 41  -21.0590 26058.0 -03419.8 -07.4765 26281.5
 10 04 2013  18 42  -21.0589 26058.1 -03419.9 -07.4769 26281.6
 10 04 2013  18 43  -21.0588 26058.1 -03420.1 -07.4772 26281.6
 10 04 2013  18 44  -21.0588 26058.1 -03420.1 -07.4774 26281.6
 10 04 2013  18 45  -21.0586 26058.2 -03420.2 -07.4775 26281.7
 10 04 2013  18 46  -21.0584 26058.2 -03420.3 -07.4777 26281.7
 10 04 2013  18 47  -21.0582 26058.2 -03420.3 -07.4777 26281.7
 10 04 2013  18 48  -21.0582 26058.1 -03420.4 -07.4779 26281.6
 10 04 2013  18 49  -21.0579 26057.9 -03420.4 -07.4779 26281.4
 10 04 2013  18 50  -21.0576 26057.6 -03420.3 -07.4779 26281.1
 10 04 2013  18 51  -21.0572 26057.3 -03420.3 -07.4779 26280.8
 10 04 2013  18 52  -21.0570 26057.2 -03420.4 -07.4782 26280.7
 10 04 2013  18 53  -21.0568 26057.1 -03420.5 -07.4784 26280.7
 10 04 2013  18 54  -21.0565 26056.9 -03420.5 -07.4784 26280.4
 10 04 2013  18 55  -21.0563 26056.9 -03420.6 -07.4787 26280.4
 10 04 2013  18 56  -21.0563 26056.7 -03420.7 -07.4789 26280.3
 10 04 2013  18 57  -21.0561 26056.6 -03420.7 -07.4790 26280.1
 10 04 2013  18 58  -21.0558 26056.3 -03420.7 -07.4790 26279.9
 10 04 2013  18 59  -21.0557 26056.1 -03420.6 -07.4790 26279.7
 10 04 2013  19 00  -21.0557 26055.9 -03420.7 -07.4791 26279.5
 10 04 2013  19 01  -21.0555 26055.7 -03420.7 -07.4792 26279.2
 10 04 2013  19 02  -21.0553 26055.5 -03420.7 -07.4794 26279.1
 10 04 2013  19 03  -21.0552 26055.4 -03420.8 -07.4796 26279.0
 10 04 2013  19 04  -21.0552 26055.4 -03420.9 -07.4798 26279.0
 10 04 2013  19 05  -21.0553 26055.5 -03421.0 -07.4800 26279.1
 10 04 2013  19 06  -21.0550 26055.5 -03421.1 -07.4802 26279.1
 10 04 2013  19 07  -21.0548 26055.5 -03421.2 -07.4804 26279.2
 10 04 2013  19 08  -21.0548 26055.5 -03421.3 -07.4805 26279.2
 10 04 2013  19 09  -21.0547 26055.4 -03421.3 -07.4806 26279.1
 10 04 2013  19 10  -21.0556 26055.2 -03421.3 -07.4808 26278.8
 10 04 2013  19 11  -21.0554 26055.1 -03421.4 -07.4809 26278.7
 10 04 2013  19 12  -21.0566 26055.0 -03421.4 -07.4810 26278.7
 10 04 2013  19 13  -21.0570 26054.7 -03421.4 -07.4810 26278.4
 10 04 2013  19 14  -21.0567 26054.4 -03421.4 -07.4811 26278.1
 10 04 2013  19 15  -21.0561 26054.3 -03421.6 -07.4815 26278.0
 10 04 2013  19 16  -21.0563 26054.2 -03421.7 -07.4818 26277.9
 10 04 2013  19 17  -21.0558 26054.0 -03421.6 -07.4816 26277.7
 10 04 2013  19 18  -21.0554 26053.9 -03421.6 -07.4816 26277.6
 10 04 2013  19 19  -21.0553 26054.1 -03421.8 -07.4820 26277.8
 10 04 2013  19 20  -21.0553 26054.2 -03421.9 -07.4824 26277.9
 10 04 2013  19 21  -21.0553 26054.2 -03422.0 -07.4825 26277.9
 10 04 2013  19 22  -21.0551 26054.0 -03422.0 -07.4825 26277.8
 10 04 2013  19 23  -21.0549 26054.0 -03422.0 -07.4826 26277.7
 10 04 2013  19 24  -21.0537 26053.9 -03422.1 -07.4827 26277.7
 10 04 2013  19 25  -21.0523 26054.0 -03422.1 -07.4828 26277.8
 10 04 2013  19 26  -21.0523 26054.0 -03422.2 -07.4830 26277.8
 10 04 2013  19 27  -21.0522 26053.9 -03422.3 -07.4831 26277.7
 10 04 2013  19 28  -21.0521 26053.8 -03422.3 -07.4832 26277.6
 10 04 2013  19 29  -21.0519 26053.4 -03422.2 -07.4832 26277.2
 10 04 2013  19 30  -21.0516 26053.0 -03422.1 -07.4831 26276.8
 10 04 2013  19 31  -21.0514 26052.7 -03422.2 -07.4833 26276.5
 10 04 2013  19 32  -21.0510 26052.4 -03422.2 -07.4835 26276.3
 10 04 2013  19 33  -21.0508 26052.5 -03422.4 -07.4838 26276.3
 10 04 2013  19 34  -21.0507 26052.4 -03422.5 -07.4841 26276.3
 10 04 2013  19 35  -21.0506 26052.4 -03422.6 -07.4843 26276.2
 10 04 2013  19 36  -21.0503 26052.3 -03422.6 -07.4844 26276.2
 10 04 2013  19 37  -21.0502 26052.3 -03422.7 -07.4846 26276.2
 10 04 2013  19 38  -21.0499 26052.3 -03422.8 -07.4848 26276.2
 10 04 2013  19 39  -21.0496 26052.2 -03422.9 -07.4850 26276.1
 10 04 2013  19 40  -21.0495 26052.2 -03423.1 -07.4853 26276.1
 10 04 2013  19 41  -21.0492 26052.1 -03423.1 -07.4854 26276.0
 10 04 2013  19 42  -21.0488 26052.1 -03423.2 -07.4856 26276.0
 10 04 2013  19 43  -21.0486 26052.0 -03423.2 -07.4858 26276.0
 10 04 2013  19 44  -21.0484 26051.8 -03423.3 -07.4859 26275.7
 10 04 2013  19 45  -21.0483 26051.6 -03423.3 -07.4859 26275.6
 10 04 2013  19 46  -21.0480 26051.5 -03423.3 -07.4861 26275.5
 10 04 2013  19 47  -21.0479 26051.6 -03423.4 -07.4863 26275.6
 10 04 2013  19 48  -21.0476 26051.7 -03423.5 -07.4864 26275.6
 10 04 2013  19 49  -21.0472 26051.5 -03423.5 -07.4865 26275.5
 10 04 2013  19 50  -21.0469 26051.3 -03423.5 -07.4865 26275.3
 10 04 2013  19 51  -21.0463 26051.3 -03423.6 -07.4867 26275.2
 10 04 2013  19 52  -21.0461 26051.3 -03423.7 -07.4870 26275.3
 10 04 2013  19 53  -21.0459 26051.1 -03423.7 -07.4870 26275.1
 10 04 2013  19 54  -21.0457 26050.8 -03423.6 -07.4869 26274.8
 10 04 2013  19 55  -21.0455 26050.7 -03423.6 -07.4869 26274.7
 10 04 2013  19 56  -21.0455 26050.8 -03423.6 -07.4870 26274.8
 10 04 2013  19 57  -21.0455 26050.8 -03423.7 -07.4870 26274.9
 10 04 2013  19 58  -21.0453 26050.8 -03423.7 -07.4870 26274.8
 10 04 2013  19 59  -21.0448 26050.5 -03423.5 -07.4868 26274.5
 10 04 2013  20 00  -21.0444 26050.3 -03423.4 -07.4867 26274.3
 10 04 2013  20 01  -21.0439 26050.1 -03423.4 -07.4866 26274.1
 10 04 2013  20 02  -21.0437 26050.3 -03423.5 -07.4869 26274.3
 10 04 2013  20 03  -21.0437 26050.8 -03423.9 -07.4875 26274.9
 10 04 2013  20 04  -21.0438 26051.3 -03424.1 -07.4879 26275.3
 10 04 2013  20 05  -21.0438 26051.2 -03424.1 -07.4878 26275.3
 10 04 2013  20 06  -21.0437 26050.7 -03423.7 -07.4872 26274.7
 10 04 2013  20 07  -21.0434 26050.1 -03423.5 -07.4868 26274.1
 10 04 2013  20 08  -21.0436 26050.1 -03423.5 -07.4869 26274.1
 10 04 2013  20 09  -21.0435 26050.1 -03423.6 -07.4870 26274.1
 10 04 2013  20 10  -21.0435 26049.8 -03423.5 -07.4871 26273.8
 10 04 2013  20 11  -21.0429 26049.6 -03423.5 -07.4869 26273.6
 10 04 2013  20 12  -21.0423 26049.9 -03423.6 -07.4873 26273.9
 10 04 2013  20 13  -21.0421 26050.3 -03424.0 -07.4878 26274.3
 10 04 2013  20 14  -21.0422 26050.7 -03424.3 -07.4884 26274.8
 10 04 2013  20 15  -21.0423 26050.7 -03424.4 -07.4886 26274.8
 10 04 2013  20 16  -21.0420 26050.2 -03424.1 -07.4882 26274.3
 10 04 2013  20 17  -21.0416 26049.5 -03423.7 -07.4875 26273.5
 10 04 2013  20 18  -21.0415 26048.5 -03423.2 -07.4867 26272.5
 10 04 2013  20 19  -21.0412 26047.3 -03422.6 -07.4858 26271.2
 10 04 2013  20 20  -21.0410 26046.5 -03422.4 -07.4855 26270.3
 10 04 2013  20 21  -21.0411 26046.2 -03422.5 -07.4858 26270.1
 10 04 2013  20 22  -21.0410 26046.4 -03422.8 -07.4864 26270.3
 10 04 2013  20 23  -21.0413 26046.8 -03423.2 -07.4871 26270.7
 10 04 2013  20 24  -21.0418 26047.1 -03423.5 -07.4878 26271.2
 10 04 2013  20 25  -21.0417 26047.3 -03423.7 -07.4880 26271.4
 10 04 2013  20 26  -21.0415 26047.3 -03423.6 -07.4879 26271.3
 10 04 2013  20 27  -21.0416 26047.0 -03423.5 -07.4877 26271.0
 10 04 2013  20 28  -21.0415 26046.8 -03423.3 -07.4874 26270.8
 10 04 2013  20 29  -21.0417 26047.0 -03423.4 -07.4876 26271.0
 10 04 2013  20 30  -21.0418 26047.4 -03423.7 -07.4880 26271.5
 10 04 2013  20 31  -21.0417 26047.8 -03423.9 -07.4883 26271.9
 10 04 2013  20 32  -21.0418 26048.0 -03424.0 -07.4885 26272.1
 10 04 2013  20 33  -21.0418 26048.1 -03424.0 -07.4886 26272.2
 10 04 2013  20 34  -21.0417 26047.9 -03423.9 -07.4883 26272.0
 10 04 2013  20 35  -21.0414 26047.6 -03423.7 -07.4879 26271.6
 10 04 2013  20 36  -21.0412 26047.2 -03423.5 -07.4876 26271.2
 10 04 2013  20 37  -21.0410 26046.9 -03423.3 -07.4874 26270.9
 10 04 2013  20 38  -21.0408 26046.8 -03423.2 -07.4873 26270.8
 10 04 2013  20 39  -21.0408 26046.7 -03423.2 -07.4872 26270.7
 10 04 2013  20 40  -21.0408 26046.5 -03423.2 -07.4872 26270.5
 10 04 2013  20 41  -21.0408 26046.3 -03423.1 -07.4871 26270.3
 10 04 2013  20 42  -21.0408 26046.1 -03423.0 -07.4870 26270.1
 10 04 2013  20 43  -21.0408 26046.0 -03423.0 -07.4869 26269.9
 10 04 2013  20 44  -21.0407 26046.0 -03423.0 -07.4869 26269.9
 10 04 2013  20 45  -21.0406 26045.9 -03422.9 -07.4868 26269.9
 10 04 2013  20 46  -21.0404 26045.7 -03422.8 -07.4866 26269.6
 10 04 2013  20 47  -21.0401 26045.4 -03422.7 -07.4865 26269.4
 10 04 2013  20 48  -21.0400 26044.9 -03422.5 -07.4861 26268.8
 10 04 2013  20 49  -21.0397 26044.5 -03422.3 -07.4859 26268.4
 10 04 2013  20 50  -21.0393 26044.3 -03422.2 -07.4858 26268.2
 10 04 2013  20 51  -21.0388 26044.0 -03422.2 -07.4857 26267.9
 10 04 2013  20 52  -21.0385 26043.9 -03422.1 -07.4856 26267.8
 10 04 2013  20 53  -21.0381 26043.9 -03422.1 -07.4856 26267.7
 10 04 2013  20 54  -21.0374 26044.0 -03422.2 -07.4858 26267.8
 10 04 2013  20 55  -21.0370 26043.9 -03422.3 -07.4860 26267.8
 10 04 2013  20 56  -21.0367 26043.8 -03422.3 -07.4862 26267.7
 10 04 2013  20 57  -21.0364 26043.4 -03422.2 -07.4861 26267.3
 10 04 2013  20 58  -21.0362 26042.9 -03422.1 -07.4859 26266.8
 10 04 2013  20 59  -21.0357 26042.9 -03422.1 -07.4860 26266.8
 10 04 2013  21 00  -21.0353 26043.1 -03422.3 -07.4863 26267.0
 10 04 2013  21 01  -21.0350 26043.2 -03422.5 -07.4867 26267.2
 10 04 2013  21 02  -21.0347 26043.7 -03422.8 -07.4872 26267.6
 10 04 2013  21 03  -21.0345 26044.0 -03423.1 -07.4877 26268.0
 10 04 2013  21 04  -21.0343 26044.2 -03423.2 -07.4880 26268.2
 10 04 2013  21 05  -21.0335 26044.1 -03423.2 -07.4879 26268.1
 10 04 2013  21 06  -21.0328 26043.8 -03423.0 -07.4876 26267.7
 10 04 2013  21 07  -21.0322 26043.3 -03422.8 -07.4873 26267.2
 10 04 2013  21 08  -21.0322 26042.8 -03422.7 -07.4872 26266.8
 10 04 2013  21 09  -21.0322 26042.3 -03422.6 -07.4871 26266.2
 10 04 2013  21 10  -21.0323 26041.7 -03422.4 -07.4869 26265.6
 10 04 2013  21 11  -21.0320 26041.2 -03422.3 -07.4868 26265.1
 10 04 2013  21 12  -21.0318 26041.1 -03422.4 -07.4871 26265.0
 10 04 2013  21 13  -21.0316 26041.3 -03422.7 -07.4876 26265.2
 10 04 2013  21 14  -21.0315 26041.2 -03422.8 -07.4880 26265.2
 10 04 2013  21 15  -21.0314 26041.2 -03423.0 -07.4883 26265.2
 10 04 2013  21 16  -21.0313 26041.1 -03423.1 -07.4886 26265.2
 10 04 2013  21 17  -21.0313 26041.0 -03423.2 -07.4889 26265.1
 10 04 2013  21 18  -21.0311 26041.0 -03423.3 -07.4891 26265.0
 10 04 2013  21 19  -21.0310 26040.9 -03423.4 -07.4893 26264.9
 10 04 2013  21 20  -21.0311 26040.7 -03423.5 -07.4895 26264.8
 10 04 2013  21 21  -21.0310 26040.5 -03423.5 -07.4896 26264.6
 10 04 2013  21 22  -21.0308 26040.6 -03423.6 -07.4898 26264.7
 10 04 2013  21 23  -21.0308 26040.7 -03423.8 -07.4902 26264.8
 10 04 2013  21 24  -21.0311 26041.3 -03424.2 -07.4909 26265.4
 10 04 2013  21 25  -21.0313 26041.3 -03424.3 -07.4911 26265.5
 10 04 2013  21 26  -21.0313 26041.6 -03424.6 -07.4917 26265.9
 10 04 2013  21 27  -21.0315 26040.8 -03424.3 -07.4912 26265.0
 10 04 2013  21 28  -21.0311 26041.6 -03424.6 -07.4917 26265.9
 10 04 2013  21 29  -21.0314 26041.3 -03424.6 -07.4918 26265.5
 10 04 2013  21 30  -21.0315 26041.3 -03424.7 -07.4919 26265.5
 10 04 2013  21 31  -21.0315 26041.5 -03424.8 -07.4921 26265.7
 10 04 2013  21 32  -21.0320 26041.1 -03424.7 -07.4920 26265.3
 10 04 2013  21 33  -21.0317 26041.1 -03424.8 -07.4921 26265.4
 10 04 2013  21 34  -21.0316 26040.9 -03424.8 -07.4922 26265.2
 10 04 2013  21 35  -21.0319 26040.4 -03424.6 -07.4919 26264.6
 10 04 2013  21 36  -21.0314 26040.3 -03424.6 -07.4919 26264.6
 10 04 2013  21 37  -21.0317 26039.6 -03424.4 -07.4917 26263.8
 10 04 2013  21 38  -21.0317 26039.6 -03424.4 -07.4918 26263.8
 10 04 2013  21 39  -21.0319 26039.4 -03424.4 -07.4919 26263.6
 10 04 2013  21 40  -21.0321 26039.2 -03424.4 -07.4920 26263.4
 10 04 2013  21 41  -21.0321 26039.0 -03424.4 -07.4921 26263.2
 10 04 2013  21 42  -21.0326 26038.5 -03424.3 -07.4919 26262.7
 10 04 2013  21 43  -21.0323 26038.4 -03424.3 -07.4920 26262.6
 10 04 2013  21 44  -21.0325 26037.8 -03424.2 -07.4918 26262.0
 10 04 2013  21 45  -21.0325 26037.6 -03424.1 -07.4917 26261.8
 10 04 2013  21 46  -21.0330 26037.3 -03424.1 -07.4917 26261.5
 10 04 2013  21 47  -21.0336 26037.2 -03424.2 -07.4920 26261.4
 10 04 2013  21 48  -21.0339 26037.1 -03424.2 -07.4921 26261.3
 10 04 2013  21 49  -21.0339 26036.7 -03424.1 -07.4920 26260.9
 10 04 2013  21 50  -21.0343 26036.3 -03424.0 -07.4920 26260.5
 10 04 2013  21 51  -21.0345 26036.3 -03424.1 -07.4921 26260.5
 10 04 2013  21 52  -21.0346 26036.2 -03424.1 -07.4922 26260.4
 10 04 2013  21 53  -21.0351 26035.7 -03424.0 -07.4921 26259.8
 10 04 2013  21 54  -21.0350 26035.4 -03424.0 -07.4921 26259.6
 10 04 2013  21 55  -21.0350 26034.8 -03423.8 -07.4918 26258.9
 10 04 2013  21 56  -21.0350 26034.3 -03423.6 -07.4916 26258.5
 10 04 2013  21 57  -21.0350 26034.1 -03423.6 -07.4916 26258.3
 10 04 2013  21 58  -21.0348 26033.9 -03423.5 -07.4916 26258.0
 10 04 2013  21 59  -21.0347 26033.5 -03423.5 -07.4917 26257.6
 10 04 2013  22 00  -21.0349 26032.7 -03423.3 -07.4914 26256.8
 10 04 2013  22 01  -21.0347 26032.1 -03423.1 -07.4912 26256.2
 10 04 2013  22 02  -21.0342 26031.7 -03423.0 -07.4911 26255.8
 10 04 2013  22 03  -21.0335 26031.5 -03423.0 -07.4912 26255.6
 10 04 2013  22 04  -21.0329 26031.4 -03423.2 -07.4915 26255.5
 10 04 2013  22 05  -21.0326 26031.5 -03423.4 -07.4919 26255.6
 10 04 2013  22 06  -21.0324 26031.6 -03423.6 -07.4924 26255.8
 10 04 2013  22 07  -21.0325 26031.7 -03423.8 -07.4928 26255.9
 10 04 2013  22 08  -21.0327 26032.1 -03424.2 -07.4934 26256.4
 10 04 2013  22 09  -21.0328 26032.4 -03424.4 -07.4939 26256.7
 10 04 2013  22 10  -21.0332 26032.7 -03424.7 -07.4943 26257.0
 10 04 2013  22 11  -21.0333 26033.1 -03425.0 -07.4949 26257.5
 10 04 2013  22 12  -21.0335 26033.5 -03425.2 -07.4952 26257.8
 10 04 2013  22 13  -21.0336 26034.2 -03425.5 -07.4957 26258.6
 10 04 2013  22 14  -21.0338 26034.9 -03425.9 -07.4964 26259.3
 10 04 2013  22 15  -21.0343 26035.4 -03426.2 -07.4968 26259.9
 10 04 2013  22 16  -21.0350 26035.8 -03426.3 -07.4971 26260.3
 10 04 2013  22 17  -21.0355 26036.2 -03426.5 -07.4972 26260.6
 10 04 2013  22 18  -21.0359 26036.4 -03426.5 -07.4973 26260.9
 10 04 2013  22 19  -21.0362 26036.5 -03426.5 -07.4973 26261.0
 10 04 2013  22 20  -21.0364 26036.6 -03426.5 -07.4971 26261.1
 10 04 2013  22 21  -21.0367 26036.4 -03426.3 -07.4968 26260.9
 10 04 2013  22 22  -21.0368 26035.9 -03426.0 -07.4963 26260.3
 10 04 2013  22 23  -21.0367 26035.6 -03425.7 -07.4958 26260.0
 10 04 2013  22 24  -21.0366 26035.3 -03425.6 -07.4955 26259.7
 10 04 2013  22 25  -21.0364 26035.0 -03425.4 -07.4953 26259.4
 10 04 2013  22 26  -21.0362 26034.8 -03425.3 -07.4952 26259.2
 10 04 2013  22 27  -21.0358 26034.9 -03425.4 -07.4953 26259.3
 10 04 2013  22 28  -21.0357 26034.8 -03425.4 -07.4954 26259.2
 10 04 2013  22 29  -21.0355 26034.7 -03425.4 -07.4954 26259.1
 10 04 2013  22 30  -21.0352 26034.8 -03425.4 -07.4954 26259.2
 10 04 2013  22 31  -21.0349 26035.0 -03425.6 -07.4957 26259.4
 10 04 2013  22 32  -21.0348 26034.9 -03425.7 -07.4959 26259.3
 10 04 2013  22 33  -21.0346 26035.0 -03425.7 -07.4959 26259.4
 10 04 2013  22 34  -21.0343 26035.0 -03425.7 -07.4960 26259.4
 10 04 2013  22 35  -21.0341 26035.1 -03425.8 -07.4960 26259.5
 10 04 2013  22 36  -21.0338 26035.1 -03425.8 -07.4962 26259.6
 10 04 2013  22 37  -21.0337 26035.2 -03425.9 -07.4964 26259.6
 10 04 2013  22 38  -21.0337 26035.2 -03426.0 -07.4964 26259.7
 10 04 2013  22 39  -21.0336 26035.4 -03426.0 -07.4965 26259.8
 10 04 2013  22 40  -21.0337 26035.4 -03426.0 -07.4966 26259.8
 10 04 2013  22 41  -21.0338 26035.7 -03426.2 -07.4968 26260.2
 10 04 2013  22 42  -21.0340 26036.0 -03426.4 -07.4971 26260.5
 10 04 2013  22 43  -21.0340 26036.4 -03426.5 -07.4973 26260.9
 10 04 2013  22 44  -21.0340 26036.7 -03426.6 -07.4975 26261.2
 10 04 2013  22 45  -21.0341 26036.9 -03426.8 -07.4977 26261.5
 10 04 2013  22 46  -21.0342 26037.2 -03426.8 -07.4978 26261.7
 10 04 2013  22 47  -21.0342 26037.3 -03426.8 -07.4978 26261.9
 10 04 2013  22 48  -21.0344 26037.3 -03426.9 -07.4978 26261.9
 10 04 2013  22 49  -21.0346 26037.4 -03426.9 -07.4978 26262.0
 10 04 2013  22 50  -21.0346 26037.5 -03426.9 -07.4977 26262.1
 10 04 2013  22 51  -21.0346 26037.5 -03426.8 -07.4976 26262.0
 10 04 2013  22 52  -21.0345 26037.6 -03426.8 -07.4975 26262.1
 10 04 2013  22 53  -21.0345 26037.7 -03426.8 -07.4975 26262.2
 10 04 2013  22 54  -21.0347 26037.8 -03426.8 -07.4976 26262.3
 10 04 2013  22 55  -21.0349 26038.0 -03426.9 -07.4977 26262.5
 10 04 2013  22 56  -21.0351 26037.9 -03426.9 -07.4976 26262.5
 10 04 2013  22 57  -21.0353 26037.9 -03426.8 -07.4975 26262.4
 10 04 2013  22 58  -21.0353 26037.8 -03426.8 -07.4974 26262.4
 10 04 2013  22 59  -21.0354 26037.9 -03426.7 -07.4973 26262.4
 10 04 2013  23 00  -21.0353 26038.1 -03426.8 -07.4974 26262.6
 10 04 2013  23 01  -21.0352 26038.3 -03426.8 -07.4975 26262.8
 10 04 2013  23 02  -21.0351 26038.5 -03426.9 -07.4975 26263.0
 10 04 2013  23 03  -21.0350 26038.7 -03427.0 -07.4977 26263.3
 10 04 2013  23 04  -21.0352 26038.8 -03427.1 -07.4978 26263.3
 10 04 2013  23 05  -21.0352 26038.8 -03427.0 -07.4977 26263.3
 10 04 2013  23 06  -21.0354 26038.7 -03427.0 -07.4976 26263.2
 10 04 2013  23 07  -21.0355 26038.4 -03426.8 -07.4974 26263.0
 10 04 2013  23 08  -21.0356 26038.3 -03426.8 -07.4973 26262.8
 10 04 2013  23 09  -21.0356 26038.2 -03426.7 -07.4972 26262.7
 10 04 2013  23 10  -21.0357 26038.2 -03426.7 -07.4971 26262.7
 10 04 2013  23 11  -21.0358 26038.2 -03426.7 -07.4972 26262.8
 10 04 2013  23 12  -21.0357 26038.4 -03426.8 -07.4972 26263.0
 10 04 2013  23 13  -21.0357 26038.5 -03426.8 -07.4973 26263.0
 10 04 2013  23 14  -21.0355 26038.5 -03426.8 -07.4973 26263.0
 10 04 2013  23 15  -21.0355 26038.6 -03426.8 -07.4973 26263.2
 10 04 2013  23 16  -21.0352 26038.9 -03426.9 -07.4974 26263.4
 10 04 2013  23 17  -21.0351 26039.0 -03427.0 -07.4975 26263.5
 10 04 2013  23 18  -21.0351 26039.1 -03427.0 -07.4976 26263.7
 10 04 2013  23 19  -21.0350 26039.2 -03427.0 -07.4977 26263.7
 10 04 2013  23 20  -21.0351 26039.3 -03427.1 -07.4977 26263.8
 10 04 2013  23 21  -21.0350 26039.3 -03427.1 -07.4977 26263.8
 10 04 2013  23 22  -21.0351 26039.2 -03427.0 -07.4976 26263.7
 10 04 2013  23 23  -21.0352 26039.1 -03426.9 -07.4975 26263.6
 10 04 2013  23 24  -21.0351 26039.1 -03426.9 -07.4974 26263.6
 10 04 2013  23 25  -21.0352 26038.9 -03426.8 -07.4972 26263.4
 10 04 2013  23 26  -21.0353 26038.7 -03426.7 -07.4971 26263.3
 10 04 2013  23 27  -21.0353 26038.7 -03426.7 -07.4971 26263.2
 10 04 2013  23 28  -21.0352 26038.7 -03426.7 -07.4970 26263.2
 10 04 2013  23 29  -21.0352 26038.6 -03426.7 -07.4970 26263.1
 10 04 2013  23 30  -21.0352 26038.5 -03426.7 -07.4970 26263.1
 10 04 2013  23 31  -21.0352 26038.6 -03426.7 -07.4970 26263.1
 10 04 2013  23 32  -21.0352 26038.7 -03426.8 -07.4971 26263.2
 10 04 2013  23 33  -21.0351 26038.8 -03426.8 -07.4972 26263.3
 10 04 2013  23 34  -21.0350 26038.9 -03426.9 -07.4974 26263.4
 10 04 2013  23 35  -21.0350 26039.1 -03427.0 -07.4975 26263.6
 10 04 2013  23 36  -21.0349 26039.3 -03427.1 -07.4977 26263.8
 10 04 2013  23 37  -21.0348 26039.5 -03427.2 -07.4978 26264.0
 10 04 2013  23 38  -21.0347 26039.6 -03427.2 -07.4979 26264.2
 10 04 2013  23 39  -21.0346 26039.7 -03427.3 -07.4980 26264.3
 10 04 2013  23 40  -21.0346 26039.8 -03427.3 -07.4981 26264.3
 10 04 2013  23 41  -21.0346 26039.7 -03427.3 -07.4980 26264.3
 10 04 2013  23 42  -21.0347 26039.7 -03427.3 -07.4980 26264.3
 10 04 2013  23 43  -21.0348 26039.7 -03427.2 -07.4979 26264.2
 10 04 2013  23 44  -21.0350 26039.6 -03427.2 -07.4978 26264.1
 10 04 2013  23 45  -21.0351 26039.4 -03427.1 -07.4977 26264.0
 10 04 2013  23 46  -21.0351 26039.4 -03427.0 -07.4976 26263.9
 10 04 2013  23 47  -21.0350 26039.3 -03427.0 -07.4975 26263.8
 10 04 2013  23 48  -21.0350 26039.1 -03426.9 -07.4974 26263.7
 10 04 2013  23 49  -21.0349 26039.0 -03426.9 -07.4973 26263.6
 10 04 2013  23 50  -21.0349 26039.0 -03426.9 -07.4974 26263.6
 10 04 2013  23 51  -21.0348 26039.0 -03426.9 -07.4974 26263.5
 10 04 2013  23 52  -21.0348 26039.0 -03426.9 -07.4974 26263.5
 10 04 2013  23 53  -21.0347 26039.0 -03427.0 -07.4975 26263.5
 10 04 2013  23 54  -21.0347 26039.0 -03427.0 -07.4975 26263.5
 10 04 2013  23 55  -21.0346 26039.1 -03427.0 -07.4976 26263.6
 10 04 2013  23 56  -21.0344 26039.3 -03427.1 -07.4978 26263.9
 10 04 2013  23 57  -21.0344 26039.5 -03427.2 -07.4980 26264.0
