SAO LUIS EMBRACE-03 <314> 1 Min. Reported data

 DD MM YYYY  HH MM   D(Deg)  H(nT)   Z(nT)   I(Deg)   F(nT)

 10 11 2013  00 00  -21.0199 25998.6 -03505.2 -07.6786 26233.8
 10 11 2013  00 01  -21.0201 25998.5 -03505.3 -07.6786 26233.7
 10 11 2013  00 02  -21.0205 25998.4 -03505.3 -07.6787 26233.6
 10 11 2013  00 03  -21.0209 25998.1 -03505.2 -07.6785 26233.3
 10 11 2013  00 04  -21.0214 25997.9 -03505.1 -07.6785 26233.1
 10 11 2013  00 05  -21.0216 25997.8 -03505.1 -07.6784 26233.0
 10 11 2013  00 06  -21.0216 25997.9 -03505.1 -07.6785 26233.1
 10 11 2013  00 07  -21.0216 25998.2 -03505.3 -07.6787 26233.5
 10 11 2013  00 08  -21.0216 25998.6 -03505.5 -07.6790 26233.8
 10 11 2013  00 09  -21.0216 25998.7 -03505.6 -07.6792 26234.0
 10 11 2013  00 10  -21.0218 25998.5 -03505.5 -07.6791 26233.8
 10 11 2013  00 11  -21.0217 25998.4 -03505.4 -07.6789 26233.7
 10 11 2013  00 12  -21.0213 25998.4 -03505.4 -07.6789 26233.6
 10 11 2013  00 13  -21.0210 25998.5 -03505.4 -07.6788 26233.7
 10 11 2013  00 14  -21.0208 25998.5 -03505.4 -07.6789 26233.7
 10 11 2013  00 15  -21.0205 25998.6 -03505.4 -07.6790 26233.9
 10 11 2013  00 16  -21.0204 25998.7 -03505.5 -07.6791 26234.0
 10 11 2013  00 17  -21.0205 25998.9 -03505.6 -07.6793 26234.1
 10 11 2013  00 18  -21.0205 25998.9 -03505.7 -07.6794 26234.2
 10 11 2013  00 19  -21.0204 25998.9 -03505.6 -07.6793 26234.2
 10 11 2013  00 20  -21.0204 25998.8 -03505.6 -07.6793 26234.0
 10 11 2013  00 21  -21.0202 25998.9 -03505.6 -07.6793 26234.2
 10 11 2013  00 22  -21.0201 25999.3 -03505.8 -07.6796 26234.6
 10 11 2013  00 23  -21.0200 25999.4 -03505.9 -07.6797 26234.7
 10 11 2013  00 24  -21.0203 25999.1 -03505.8 -07.6796 26234.4
 10 11 2013  00 25  -21.0207 25998.7 -03505.6 -07.6793 26234.0
 10 11 2013  00 26  -21.0209 25998.2 -03505.4 -07.6789 26233.4
 10 11 2013  00 27  -21.0207 25997.8 -03505.1 -07.6785 26233.0
 10 11 2013  00 28  -21.0206 25997.6 -03505.0 -07.6782 26232.8
 10 11 2013  00 29  -21.0206 25997.6 -03505.0 -07.6784 26232.9
 10 11 2013  00 30  -21.0207 25997.8 -03505.2 -07.6787 26233.1
 10 11 2013  00 31  -21.0207 25998.2 -03505.4 -07.6790 26233.5
 10 11 2013  00 32  -21.0208 25998.5 -03505.6 -07.6793 26233.7
 10 11 2013  00 33  -21.0210 25998.6 -03505.6 -07.6794 26233.9
 10 11 2013  00 34  -21.0209 25998.6 -03505.7 -07.6795 26233.9
 10 11 2013  00 35  -21.0206 25998.8 -03505.7 -07.6795 26234.1
 10 11 2013  00 36  -21.0203 25999.0 -03505.8 -07.6795 26234.3
 10 11 2013  00 37  -21.0201 25999.0 -03505.8 -07.6796 26234.3
 10 11 2013  00 38  -21.0198 25998.8 -03505.7 -07.6794 26234.1
 10 11 2013  00 39  -21.0195 25998.7 -03505.6 -07.6793 26234.0
 10 11 2013  00 40  -21.0194 25998.6 -03505.5 -07.6791 26233.9
 10 11 2013  00 41  -21.0194 25998.5 -03505.5 -07.6792 26233.8
 10 11 2013  00 42  -21.0195 25998.6 -03505.5 -07.6791 26233.8
 10 11 2013  00 43  -21.0196 25998.4 -03505.5 -07.6791 26233.7
 10 11 2013  00 44  -21.0197 25998.4 -03505.5 -07.6791 26233.7
 10 11 2013  00 45  -21.0197 25998.5 -03505.5 -07.6792 26233.8
 10 11 2013  00 46  -21.0197 25998.7 -03505.6 -07.6794 26234.0
 10 11 2013  00 47  -21.0198 25998.8 -03505.7 -07.6794 26234.1
 10 11 2013  00 48  -21.0200 25998.8 -03505.7 -07.6794 26234.0
 10 11 2013  00 49  -21.0200 25998.5 -03505.5 -07.6792 26233.8
 10 11 2013  00 50  -21.0201 25998.4 -03505.4 -07.6789 26233.6
 10 11 2013  00 51  -21.0204 25998.1 -03505.3 -07.6788 26233.4
 10 11 2013  00 52  -21.0208 25997.9 -03505.1 -07.6785 26233.2
 10 11 2013  00 53  -21.0212 25997.7 -03505.1 -07.6784 26233.0
 10 11 2013  00 54  -21.0216 25997.5 -03505.0 -07.6783 26232.7
 10 11 2013  00 55  -21.0220 25997.4 -03504.9 -07.6782 26232.6
 10 11 2013  00 56  -21.0224 25997.3 -03504.9 -07.6782 26232.5
 10 11 2013  00 57  -21.0226 25997.2 -03504.8 -07.6781 26232.4
 10 11 2013  00 58  -21.0232 25997.1 -03504.8 -07.6780 26232.3
 10 11 2013  00 59  -21.0238 25996.9 -03504.8 -07.6780 26232.1
 10 11 2013  01 00  -21.0244 25996.6 -03504.6 -07.6778 26231.7
 10 11 2013  01 01  -21.0244 25996.2 -03504.4 -07.6773 26231.3
 10 11 2013  01 02  -21.0245 25995.7 -03504.2 -07.6770 26230.9
 10 11 2013  01 03  -21.0251 25995.4 -03504.0 -07.6769 26230.5
 10 11 2013  01 04  -21.0258 25995.0 -03503.9 -07.6767 26230.1
 10 11 2013  01 05  -21.0258 25994.5 -03503.7 -07.6764 26229.6
 10 11 2013  01 06  -21.0254 25994.2 -03503.5 -07.6761 26229.3
 10 11 2013  01 07  -21.0248 25994.2 -03503.6 -07.6762 26229.3
 10 11 2013  01 08  -21.0248 25994.4 -03503.8 -07.6766 26229.5
 10 11 2013  01 09  -21.0252 25994.2 -03503.8 -07.6767 26229.3
 10 11 2013  01 10  -21.0261 25993.9 -03503.8 -07.6767 26229.0
 10 11 2013  01 11  -21.0267 25993.4 -03503.6 -07.6765 26228.5
 10 11 2013  01 12  -21.0273 25993.3 -03503.5 -07.6764 26228.3
 10 11 2013  01 13  -21.0275 25993.0 -03503.4 -07.6763 26228.1
 10 11 2013  01 14  -21.0270 25992.7 -03503.3 -07.6761 26227.7
 10 11 2013  01 15  -21.0267 25992.7 -03503.3 -07.6761 26227.8
 10 11 2013  01 16  -21.0262 25993.5 -03503.6 -07.6765 26228.5
 10 11 2013  01 17  -21.0263 25993.0 -03503.6 -07.6767 26228.1
 10 11 2013  01 18  -21.0271 25993.4 -03503.8 -07.6770 26228.4
 10 11 2013  01 19  -21.0271 25993.1 -03503.8 -07.6770 26228.1
 10 11 2013  01 20  -21.0267 25992.9 -03503.6 -07.6767 26228.0
 10 11 2013  01 21  -21.0259 25994.7 -03504.5 -07.6780 26229.9
 10 11 2013  01 22  -21.0264 25995.0 -03504.8 -07.6786 26230.2
 10 11 2013  01 23  -21.0255 25996.3 -03505.5 -07.6799 26231.6
 10 11 2013  01 24  -21.0252 25996.4 -03505.6 -07.6800 26231.7
 10 11 2013  01 25  -21.0241 25996.5 -03505.6 -07.6799 26231.8
 10 11 2013  01 26  -21.0243 25996.5 -03505.6 -07.6798 26231.8
 10 11 2013  01 27  -21.0249 25997.1 -03505.9 -07.6804 26232.4
 10 11 2013  01 28  -21.0257 25997.3 -03506.1 -07.6807 26232.7
 10 11 2013  01 29  -21.0260 25997.3 -03506.0 -07.6806 26232.6
 10 11 2013  01 30  -21.0259 25997.4 -03506.0 -07.6805 26232.8
 10 11 2013  01 31  -21.0259 25997.2 -03505.9 -07.6803 26232.6
 10 11 2013  01 32  -21.0261 25997.2 -03505.8 -07.6802 26232.5
 10 11 2013  01 33  -21.0266 25997.4 -03505.9 -07.6803 26232.8
 10 11 2013  01 34  -21.0269 25997.6 -03506.0 -07.6805 26232.9
 10 11 2013  01 35  -21.0271 25997.5 -03505.9 -07.6802 26232.8
 10 11 2013  01 36  -21.0272 25997.2 -03505.7 -07.6798 26232.5
 10 11 2013  01 37  -21.0273 25997.2 -03505.6 -07.6798 26232.5
 10 11 2013  01 38  -21.0278 25996.9 -03505.5 -07.6796 26232.2
 10 11 2013  01 39  -21.0277 25997.2 -03505.6 -07.6797 26232.5
 10 11 2013  01 40  -21.0280 25996.8 -03505.4 -07.6794 26232.1
 10 11 2013  01 41  -21.0280 25997.0 -03505.4 -07.6794 26232.2
 10 11 2013  01 42  -21.0278 25997.1 -03505.4 -07.6793 26232.4
 10 11 2013  01 43  -21.0276 25997.2 -03505.4 -07.6792 26232.4
 10 11 2013  01 44  -21.0271 25997.2 -03505.4 -07.6792 26232.5
 10 11 2013  01 45  -21.0265 25997.2 -03505.3 -07.6792 26232.4
 10 11 2013  01 46  -21.0258 25997.3 -03505.3 -07.6791 26232.6
 10 11 2013  01 47  -21.0258 25997.5 -03505.4 -07.6793 26232.8
 10 11 2013  01 48  -21.0258 25997.5 -03505.5 -07.6794 26232.8
 10 11 2013  01 49  -21.0252 25997.3 -03505.4 -07.6792 26232.6
 10 11 2013  01 50  -21.0248 25997.2 -03505.3 -07.6790 26232.4
 10 11 2013  01 51  -21.0247 25997.1 -03505.2 -07.6789 26232.3
 10 11 2013  01 52  -21.0251 25996.9 -03505.2 -07.6789 26232.2
 10 11 2013  01 53  -21.0254 25996.8 -03505.1 -07.6789 26232.0
 10 11 2013  01 54  -21.0258 25996.7 -03505.1 -07.6788 26231.9
 10 11 2013  01 55  -21.0261 25996.4 -03505.1 -07.6788 26231.7
 10 11 2013  01 56  -21.0263 25996.2 -03504.9 -07.6786 26231.4
 10 11 2013  01 57  -21.0264 25995.9 -03504.7 -07.6782 26231.1
 10 11 2013  01 58  -21.0269 25995.8 -03504.7 -07.6782 26231.0
 10 11 2013  01 59  -21.0271 25995.7 -03504.7 -07.6782 26230.9
 10 11 2013  02 00  -21.0271 25995.4 -03504.6 -07.6780 26230.6
 10 11 2013  02 01  -21.0273 25995.1 -03504.4 -07.6777 26230.2
 10 11 2013  02 02  -21.0278 25994.8 -03504.2 -07.6775 26229.9
 10 11 2013  02 03  -21.0281 25994.6 -03504.2 -07.6774 26229.7
 10 11 2013  02 04  -21.0286 25994.3 -03504.0 -07.6772 26229.4
 10 11 2013  02 05  -21.0288 25994.1 -03503.9 -07.6770 26229.2
 10 11 2013  02 06  -21.0292 25993.7 -03503.8 -07.6768 26228.8
 10 11 2013  02 07  -21.0293 25993.6 -03503.6 -07.6765 26228.6
 10 11 2013  02 08  -21.0298 25993.3 -03503.6 -07.6764 26228.4
 10 11 2013  02 09  -21.0302 25993.3 -03503.5 -07.6764 26228.4
 10 11 2013  02 10  -21.0308 25993.2 -03503.6 -07.6765 26228.3
 10 11 2013  02 11  -21.0309 25993.2 -03503.6 -07.6765 26228.2
 10 11 2013  02 12  -21.0312 25993.1 -03503.5 -07.6763 26228.1
 10 11 2013  02 13  -21.0317 25992.9 -03503.5 -07.6764 26228.0
 10 11 2013  02 14  -21.0321 25992.8 -03503.4 -07.6763 26227.9
 10 11 2013  02 15  -21.0324 25992.8 -03503.4 -07.6763 26227.8
 10 11 2013  02 16  -21.0324 25992.7 -03503.3 -07.6761 26227.7
 10 11 2013  02 17  -21.0324 25992.3 -03503.1 -07.6758 26227.3
 10 11 2013  02 18  -21.0322 25992.2 -03503.1 -07.6757 26227.2
 10 11 2013  02 19  -21.0321 25992.2 -03503.1 -07.6758 26227.2
 10 11 2013  02 20  -21.0323 25992.2 -03503.1 -07.6758 26227.2
 10 11 2013  02 21  -21.0324 25992.2 -03503.1 -07.6758 26227.2
 10 11 2013  02 22  -21.0325 25992.1 -03503.1 -07.6758 26227.1
 10 11 2013  02 23  -21.0324 25992.0 -03503.0 -07.6757 26227.0
 10 11 2013  02 24  -21.0324 25991.9 -03503.0 -07.6757 26226.9
 10 11 2013  02 25  -21.0323 25991.9 -03503.1 -07.6758 26226.9
 10 11 2013  02 26  -21.0324 25991.7 -03503.0 -07.6757 26226.7
 10 11 2013  02 27  -21.0321 25991.5 -03502.9 -07.6756 26226.5
 10 11 2013  02 28  -21.0323 25991.5 -03502.9 -07.6756 26226.5
 10 11 2013  02 29  -21.0320 25991.2 -03502.8 -07.6755 26226.2
 10 11 2013  02 30  -21.0313 25991.1 -03502.7 -07.6753 26226.0
 10 11 2013  02 31  -21.0308 25990.8 -03502.7 -07.6752 26225.8
 10 11 2013  02 32  -21.0307 25990.7 -03502.6 -07.6751 26225.6
 10 11 2013  02 33  -21.0307 25990.7 -03502.7 -07.6753 26225.7
 10 11 2013  02 34  -21.0308 25990.7 -03502.7 -07.6754 26225.7
 10 11 2013  02 35  -21.0306 25990.6 -03502.8 -07.6756 26225.6
 10 11 2013  02 36  -21.0304 25990.5 -03502.8 -07.6757 26225.5
 10 11 2013  02 37  -21.0301 25990.4 -03502.8 -07.6757 26225.4
 10 11 2013  02 38  -21.0298 25990.3 -03502.8 -07.6756 26225.2
 10 11 2013  02 39  -21.0299 25990.1 -03502.7 -07.6756 26225.1
 10 11 2013  02 40  -21.0300 25990.0 -03502.7 -07.6756 26225.0
 10 11 2013  02 41  -21.0299 25990.1 -03502.8 -07.6758 26225.1
 10 11 2013  02 42  -21.0301 25990.3 -03503.0 -07.6761 26225.3
 10 11 2013  02 43  -21.0303 25990.4 -03503.1 -07.6762 26225.4
 10 11 2013  02 44  -21.0307 25990.4 -03503.2 -07.6764 26225.5
 10 11 2013  02 45  -21.0308 25990.5 -03503.2 -07.6765 26225.5
 10 11 2013  02 46  -21.0308 25990.5 -03503.2 -07.6764 26225.5
 10 11 2013  02 47  -21.0304 25990.5 -03503.2 -07.6764 26225.5
 10 11 2013  02 48  -21.0297 25990.3 -03503.0 -07.6762 26225.3
 10 11 2013  02 49  -21.0292 25990.3 -03503.0 -07.6762 26225.3
 10 11 2013  02 50  -21.0291 25990.1 -03503.0 -07.6762 26225.2
 10 11 2013  02 51  -21.0291 25990.1 -03503.1 -07.6764 26225.1
 10 11 2013  02 52  -21.0294 25990.2 -03503.2 -07.6766 26225.2
 10 11 2013  02 53  -21.0297 25990.4 -03503.4 -07.6769 26225.4
 10 11 2013  02 54  -21.0297 25990.6 -03503.6 -07.6772 26225.7
 10 11 2013  02 55  -21.0296 25990.8 -03503.7 -07.6775 26225.9
 10 11 2013  02 56  -21.0294 25990.8 -03503.7 -07.6775 26225.9
 10 11 2013  02 57  -21.0286 25990.7 -03503.7 -07.6775 26225.8
 10 11 2013  02 58  -21.0281 25990.8 -03503.8 -07.6776 26225.9
 10 11 2013  02 59  -21.0275 25991.0 -03503.8 -07.6777 26226.1
 10 11 2013  03 00  -21.0277 25991.3 -03504.1 -07.6781 26226.4
 10 11 2013  03 01  -21.0279 25991.7 -03504.3 -07.6786 26226.8
 10 11 2013  03 02  -21.0273 25991.9 -03504.5 -07.6788 26227.1
 10 11 2013  03 03  -21.0267 25992.3 -03504.7 -07.6791 26227.6
 10 11 2013  03 04  -21.0261 25992.7 -03504.8 -07.6793 26227.9
 10 11 2013  03 05  -21.0259 25993.3 -03505.1 -07.6798 26228.5
 10 11 2013  03 06  -21.0260 25993.8 -03505.4 -07.6802 26229.1
 10 11 2013  03 07  -21.0263 25993.9 -03505.5 -07.6805 26229.3
 10 11 2013  03 08  -21.0264 25994.0 -03505.5 -07.6805 26229.3
 10 11 2013  03 09  -21.0263 25994.1 -03505.5 -07.6804 26229.4
 10 11 2013  03 10  -21.0263 25994.2 -03505.5 -07.6804 26229.5
 10 11 2013  03 11  -21.0263 25994.4 -03505.6 -07.6805 26229.7
 10 11 2013  03 12  -21.0266 25994.6 -03505.7 -07.6807 26229.9
 10 11 2013  03 13  -21.0270 25995.0 -03505.9 -07.6810 26230.3
 10 11 2013  03 14  -21.0274 25995.1 -03505.9 -07.6810 26230.5
 10 11 2013  03 15  -21.0277 25995.2 -03505.9 -07.6809 26230.6
 10 11 2013  03 16  -21.0279 25995.2 -03505.8 -07.6807 26230.6
 10 11 2013  03 17  -21.0280 25995.2 -03505.7 -07.6805 26230.5
 10 11 2013  03 18  -21.0277 25995.1 -03505.6 -07.6803 26230.4
 10 11 2013  03 19  -21.0273 25995.2 -03505.5 -07.6801 26230.5
 10 11 2013  03 20  -21.0270 25995.3 -03505.5 -07.6801 26230.6
 10 11 2013  03 21  -21.0268 25995.5 -03505.6 -07.6802 26230.8
 10 11 2013  03 22  -21.0268 25995.7 -03505.7 -07.6804 26231.0
 10 11 2013  03 23  -21.0268 25995.8 -03505.8 -07.6805 26231.2
 10 11 2013  03 24  -21.0269 25995.9 -03505.8 -07.6805 26231.3
 10 11 2013  03 25  -21.0270 25996.1 -03505.8 -07.6805 26231.4
 10 11 2013  03 26  -21.0270 25996.2 -03505.8 -07.6805 26231.6
 10 11 2013  03 27  -21.0270 25996.3 -03505.8 -07.6805 26231.6
 10 11 2013  03 28  -21.0271 25996.3 -03505.8 -07.6805 26231.6
 10 11 2013  03 29  -21.0272 25996.4 -03505.8 -07.6804 26231.7
 10 11 2013  03 30  -21.0272 25996.5 -03505.8 -07.6803 26231.8
 10 11 2013  03 31  -21.0273 25996.5 -03505.8 -07.6803 26231.8
 10 11 2013  03 32  -21.0275 25996.8 -03505.8 -07.6803 26232.1
 10 11 2013  03 33  -21.0276 25997.0 -03505.9 -07.6803 26232.3
 10 11 2013  03 34  -21.0277 25997.0 -03505.8 -07.6803 26232.3
 10 11 2013  03 35  -21.0277 25997.0 -03505.9 -07.6804 26232.3
 10 11 2013  03 36  -21.0275 25997.0 -03505.8 -07.6803 26232.3
 10 11 2013  03 37  -21.0274 25997.0 -03505.8 -07.6801 26232.3
 10 11 2013  03 38  -21.0276 25997.0 -03505.8 -07.6801 26232.3
 10 11 2013  03 39  -21.0279 25997.0 -03505.7 -07.6801 26232.3
 10 11 2013  03 40  -21.0282 25997.0 -03505.7 -07.6800 26232.3
 10 11 2013  03 41  -21.0286 25997.0 -03505.7 -07.6800 26232.3
 10 11 2013  03 42  -21.0286 25996.9 -03505.6 -07.6798 26232.2
 10 11 2013  03 43  -21.0285 25996.7 -03505.5 -07.6796 26232.0
 10 11 2013  03 44  -21.0283 25996.7 -03505.4 -07.6795 26231.9
 10 11 2013  03 45  -21.0281 25996.6 -03505.3 -07.6793 26231.9
 10 11 2013  03 46  -21.0281 25996.7 -03505.3 -07.6792 26231.9
 10 11 2013  03 47  -21.0282 25996.7 -03505.3 -07.6793 26232.0
 10 11 2013  03 48  -21.0282 25996.7 -03505.3 -07.6792 26232.0
 10 11 2013  03 49  -21.0284 25996.7 -03505.3 -07.6793 26231.9
 10 11 2013  03 50  -21.0287 25996.7 -03505.3 -07.6793 26231.9
 10 11 2013  03 51  -21.0290 25996.7 -03505.3 -07.6793 26232.0
 10 11 2013  03 52  -21.0293 25996.7 -03505.3 -07.6792 26232.0
 10 11 2013  03 53  -21.0295 25996.7 -03505.3 -07.6792 26231.9
 10 11 2013  03 54  -21.0299 25996.6 -03505.2 -07.6791 26231.9
 10 11 2013  03 55  -21.0301 25996.7 -03505.2 -07.6790 26231.9
 10 11 2013  03 56  -21.0304 25996.7 -03505.2 -07.6790 26231.9
 10 11 2013  03 57  -21.0307 25996.7 -03505.2 -07.6789 26231.9
 10 11 2013  03 58  -21.0308 25996.6 -03505.1 -07.6788 26231.9
 10 11 2013  03 59  -21.0309 25996.6 -03505.0 -07.6787 26231.8
 10 11 2013  04 00  -21.0310 25996.5 -03505.0 -07.6786 26231.8
 10 11 2013  04 01  -21.0313 25996.4 -03504.9 -07.6785 26231.6
 10 11 2013  04 02  -21.0314 25996.3 -03504.9 -07.6784 26231.5
 10 11 2013  04 03  -21.0314 25996.0 -03504.7 -07.6782 26231.2
 10 11 2013  04 04  -21.0316 25995.8 -03504.6 -07.6781 26231.0
 10 11 2013  04 05  -21.0316 25995.7 -03504.6 -07.6779 26230.9
 10 11 2013  04 06  -21.0318 25995.7 -03504.6 -07.6779 26230.9
 10 11 2013  04 07  -21.0318 25995.6 -03504.5 -07.6779 26230.8
 10 11 2013  04 08  -21.0323 25995.4 -03504.5 -07.6778 26230.5
 10 11 2013  04 09  -21.0328 25995.2 -03504.4 -07.6776 26230.3
 10 11 2013  04 10  -21.0330 25995.5 -03504.5 -07.6778 26230.6
 10 11 2013  04 11  -21.0335 25995.8 -03504.7 -07.6781 26231.0
 10 11 2013  04 12  -21.0339 25996.1 -03504.9 -07.6784 26231.3
 10 11 2013  04 13  -21.0342 25996.3 -03505.0 -07.6786 26231.5
 10 11 2013  04 14  -21.0341 25996.6 -03505.1 -07.6788 26231.8
 10 11 2013  04 15  -21.0340 25996.8 -03505.2 -07.6789 26232.1
 10 11 2013  04 16  -21.0338 25997.0 -03505.2 -07.6789 26232.2
 10 11 2013  04 17  -21.0337 25997.0 -03505.2 -07.6789 26232.3
 10 11 2013  04 18  -21.0338 25996.8 -03505.1 -07.6787 26232.1
 10 11 2013  04 19  -21.0336 25996.6 -03505.0 -07.6785 26231.8
 10 11 2013  04 20  -21.0333 25996.4 -03504.8 -07.6783 26231.6
 10 11 2013  04 21  -21.0331 25996.3 -03504.7 -07.6781 26231.5
 10 11 2013  04 22  -21.0331 25996.2 -03504.7 -07.6781 26231.4
 10 11 2013  04 23  -21.0328 25996.3 -03504.8 -07.6782 26231.5
 10 11 2013  04 24  -21.0326 25996.1 -03504.7 -07.6781 26231.3
 10 11 2013  04 25  -21.0324 25996.1 -03504.7 -07.6782 26231.3
 10 11 2013  04 26  -21.0324 25996.1 -03504.8 -07.6783 26231.2
 10 11 2013  04 27  -21.0324 25996.1 -03504.8 -07.6784 26231.3
 10 11 2013  04 28  -21.0325 25996.1 -03504.9 -07.6785 26231.3
 10 11 2013  04 29  -21.0325 25996.2 -03504.9 -07.6786 26231.4
 10 11 2013  04 30  -21.0326 25996.3 -03505.0 -07.6787 26231.6
 10 11 2013  04 31  -21.0326 25996.4 -03505.1 -07.6788 26231.6
 10 11 2013  04 32  -21.0327 25996.3 -03505.1 -07.6788 26231.6
 10 11 2013  04 33  -21.0325 25996.3 -03505.0 -07.6788 26231.5
 10 11 2013  04 34  -21.0325 25996.0 -03504.9 -07.6786 26231.2
 10 11 2013  04 35  -21.0321 25995.8 -03504.9 -07.6785 26231.0
 10 11 2013  04 36  -21.0321 25995.8 -03504.8 -07.6784 26231.0
 10 11 2013  04 37  -21.0322 25996.0 -03505.0 -07.6787 26231.2
 10 11 2013  04 38  -21.0323 25996.1 -03505.1 -07.6789 26231.3
 10 11 2013  04 39  -21.0324 25996.1 -03505.1 -07.6790 26231.3
 10 11 2013  04 40  -21.0325 25996.0 -03505.1 -07.6789 26231.2
 10 11 2013  04 41  -21.0325 25996.0 -03505.0 -07.6789 26231.2
 10 11 2013  04 42  -21.0323 25995.9 -03505.0 -07.6788 26231.1
 10 11 2013  04 43  -21.0322 25995.8 -03505.0 -07.6788 26231.0
 10 11 2013  04 44  -21.0321 25995.7 -03505.0 -07.6788 26230.9
 10 11 2013  04 45  -21.0323 25995.6 -03504.9 -07.6787 26230.8
 10 11 2013  04 46  -21.0324 25995.6 -03504.9 -07.6787 26230.8
 10 11 2013  04 47  -21.0322 25995.9 -03505.1 -07.6790 26231.1
 10 11 2013  04 48  -21.0320 25996.1 -03505.2 -07.6793 26231.4
 10 11 2013  04 49  -21.0319 25996.4 -03505.4 -07.6795 26231.7
 10 11 2013  04 50  -21.0318 25996.7 -03505.5 -07.6797 26232.0
 10 11 2013  04 51  -21.0319 25996.9 -03505.7 -07.6800 26232.2
 10 11 2013  04 52  -21.0318 25997.1 -03505.8 -07.6801 26232.5
 10 11 2013  04 53  -21.0316 25997.5 -03506.0 -07.6805 26232.9
 10 11 2013  04 54  -21.0317 25997.6 -03506.1 -07.6806 26233.0
 10 11 2013  04 55  -21.0314 25997.7 -03506.0 -07.6805 26233.0
 10 11 2013  04 56  -21.0310 25997.7 -03506.0 -07.6803 26233.1
 10 11 2013  04 57  -21.0303 25997.6 -03505.9 -07.6802 26232.9
 10 11 2013  04 58  -21.0298 25997.4 -03505.7 -07.6800 26232.7
 10 11 2013  04 59  -21.0298 25997.3 -03505.7 -07.6800 26232.6
 10 11 2013  05 00  -21.0300 25997.3 -03505.8 -07.6801 26232.6
 10 11 2013  05 01  -21.0302 25997.4 -03505.9 -07.6803 26232.7
 10 11 2013  05 02  -21.0304 25997.5 -03505.9 -07.6804 26232.9
 10 11 2013  05 03  -21.0306 25997.6 -03506.0 -07.6804 26232.9
 10 11 2013  05 04  -21.0307 25997.7 -03506.0 -07.6804 26233.0
 10 11 2013  05 05  -21.0308 25997.9 -03506.1 -07.6805 26233.2
 10 11 2013  05 06  -21.0309 25998.1 -03506.2 -07.6807 26233.5
 10 11 2013  05 07  -21.0311 25998.2 -03506.2 -07.6808 26233.6
 10 11 2013  05 08  -21.0312 25998.2 -03506.2 -07.6807 26233.6
 10 11 2013  05 09  -21.0311 25998.1 -03506.1 -07.6806 26233.5
 10 11 2013  05 10  -21.0307 25998.0 -03506.0 -07.6804 26233.4
 10 11 2013  05 11  -21.0307 25998.0 -03506.0 -07.6803 26233.4
 10 11 2013  05 12  -21.0306 25998.1 -03506.0 -07.6803 26233.5
 10 11 2013  05 13  -21.0307 25998.3 -03506.1 -07.6804 26233.7
 10 11 2013  05 14  -21.0308 25998.8 -03506.3 -07.6808 26234.2
 10 11 2013  05 15  -21.0309 25999.3 -03506.5 -07.6811 26234.7
 10 11 2013  05 16  -21.0309 25999.5 -03506.5 -07.6811 26234.9
 10 11 2013  05 17  -21.0309 25999.4 -03506.5 -07.6809 26234.8
 10 11 2013  05 18  -21.0310 25999.4 -03506.4 -07.6809 26234.8
 10 11 2013  05 19  -21.0311 25999.3 -03506.3 -07.6807 26234.7
 10 11 2013  05 20  -21.0311 25999.3 -03506.2 -07.6805 26234.6
 10 11 2013  05 21  -21.0311 25999.2 -03506.2 -07.6805 26234.6
 10 11 2013  05 22  -21.0312 25999.3 -03506.2 -07.6805 26234.6
 10 11 2013  05 23  -21.0315 25999.4 -03506.3 -07.6807 26234.8
 10 11 2013  05 24  -21.0317 25999.5 -03506.4 -07.6807 26234.9
 10 11 2013  05 25  -21.0316 25999.6 -03506.4 -07.6808 26235.0
 10 11 2013  05 26  -21.0316 25999.7 -03506.4 -07.6808 26235.1
 10 11 2013  05 27  -21.0316 25999.7 -03506.5 -07.6809 26235.1
 10 11 2013  05 28  -21.0318 25999.7 -03506.5 -07.6809 26235.1
 10 11 2013  05 29  -21.0320 25999.6 -03506.4 -07.6807 26235.0
 10 11 2013  05 30  -21.0323 25999.5 -03506.3 -07.6805 26234.9
 10 11 2013  05 31  -21.0324 25999.5 -03506.3 -07.6805 26234.9
 10 11 2013  05 32  -21.0325 25999.6 -03506.3 -07.6805 26235.0
 10 11 2013  05 33  -21.0324 25999.6 -03506.3 -07.6805 26235.0
 10 11 2013  05 34  -21.0322 25999.5 -03506.2 -07.6804 26234.9
 10 11 2013  05 35  -21.0319 25999.4 -03506.1 -07.6802 26234.8
 10 11 2013  05 36  -21.0318 25999.3 -03506.0 -07.6801 26234.6
 10 11 2013  05 37  -21.0318 25999.1 -03505.9 -07.6799 26234.4
 10 11 2013  05 38  -21.0318 25999.1 -03505.9 -07.6798 26234.4
 10 11 2013  05 39  -21.0319 25999.0 -03505.9 -07.6799 26234.3
 10 11 2013  05 40  -21.0321 25999.1 -03505.9 -07.6799 26234.4
 10 11 2013  05 41  -21.0323 25999.1 -03506.0 -07.6800 26234.5
 10 11 2013  05 42  -21.0327 25999.3 -03506.0 -07.6801 26234.6
 10 11 2013  05 43  -21.0330 25999.4 -03506.1 -07.6802 26234.7
 10 11 2013  05 44  -21.0333 25999.5 -03506.1 -07.6802 26234.8
 10 11 2013  05 45  -21.0335 25999.7 -03506.2 -07.6803 26235.1
 10 11 2013  05 46  -21.0337 26000.0 -03506.3 -07.6805 26235.4
 10 11 2013  05 47  -21.0339 26000.2 -03506.4 -07.6806 26235.6
 10 11 2013  05 48  -21.0342 26000.4 -03506.5 -07.6806 26235.8
 10 11 2013  05 49  -21.0342 26000.5 -03506.4 -07.6805 26235.9
 10 11 2013  05 50  -21.0341 26000.5 -03506.4 -07.6804 26235.9
 10 11 2013  05 51  -21.0339 26000.6 -03506.3 -07.6802 26235.9
 10 11 2013  05 52  -21.0339 26000.6 -03506.2 -07.6801 26235.9
 10 11 2013  05 53  -21.0337 26000.6 -03506.2 -07.6801 26235.9
 10 11 2013  05 54  -21.0334 26000.6 -03506.2 -07.6800 26235.9
 10 11 2013  05 55  -21.0330 26000.6 -03506.1 -07.6799 26236.0
 10 11 2013  05 56  -21.0327 26000.7 -03506.1 -07.6799 26236.0
 10 11 2013  05 57  -21.0325 26000.8 -03506.1 -07.6799 26236.1
 10 11 2013  05 58  -21.0324 26000.8 -03506.1 -07.6799 26236.1
 10 11 2013  05 59  -21.0320 26000.8 -03506.1 -07.6798 26236.1
 10 11 2013  06 00  -21.0318 26000.8 -03506.1 -07.6798 26236.2
 10 11 2013  06 01  -21.0315 26000.9 -03506.1 -07.6798 26236.3
 10 11 2013  06 02  -21.0313 26001.0 -03506.1 -07.6798 26236.3
 10 11 2013  06 03  -21.0311 26001.0 -03506.1 -07.6798 26236.3
 10 11 2013  06 04  -21.0308 26001.0 -03506.1 -07.6798 26236.3
 10 11 2013  06 05  -21.0306 26001.1 -03506.2 -07.6798 26236.5
 10 11 2013  06 06  -21.0306 26001.3 -03506.3 -07.6800 26236.6
 10 11 2013  06 07  -21.0306 26001.4 -03506.3 -07.6801 26236.8
 10 11 2013  06 08  -21.0306 26001.6 -03506.4 -07.6802 26237.0
 10 11 2013  06 09  -21.0306 26001.6 -03506.4 -07.6802 26237.0
 10 11 2013  06 10  -21.0304 26001.7 -03506.4 -07.6802 26237.1
 10 11 2013  06 11  -21.0302 26001.9 -03506.4 -07.6802 26237.3
 10 11 2013  06 12  -21.0302 26002.0 -03506.5 -07.6803 26237.4
 10 11 2013  06 13  -21.0303 26002.2 -03506.6 -07.6804 26237.6
 10 11 2013  06 14  -21.0305 26002.3 -03506.6 -07.6804 26237.7
 10 11 2013  06 15  -21.0306 26002.4 -03506.6 -07.6804 26237.8
 10 11 2013  06 16  -21.0306 26002.3 -03506.5 -07.6802 26237.7
 10 11 2013  06 17  -21.0307 26002.2 -03506.4 -07.6800 26237.6
 10 11 2013  06 18  -21.0307 26002.2 -03506.3 -07.6799 26237.5
 10 11 2013  06 19  -21.0308 26002.2 -03506.3 -07.6799 26237.6
 10 11 2013  06 20  -21.0310 26002.3 -03506.3 -07.6798 26237.7
 10 11 2013  06 21  -21.0314 26002.5 -03506.4 -07.6799 26237.8
 10 11 2013  06 22  -21.0316 26002.5 -03506.4 -07.6798 26237.8
 10 11 2013  06 23  -21.0314 26002.7 -03506.4 -07.6799 26238.1
 10 11 2013  06 24  -21.0313 26003.0 -03506.5 -07.6800 26238.4
 10 11 2013  06 25  -21.0316 26003.1 -03506.5 -07.6800 26238.5
 10 11 2013  06 26  -21.0320 26003.0 -03506.4 -07.6799 26238.3
 10 11 2013  06 27  -21.0322 26002.7 -03506.2 -07.6795 26238.0
 10 11 2013  06 28  -21.0321 26002.4 -03506.0 -07.6791 26237.7
 10 11 2013  06 29  -21.0320 26002.1 -03505.8 -07.6788 26237.4
 10 11 2013  06 30  -21.0321 26002.0 -03505.7 -07.6785 26237.3
 10 11 2013  06 31  -21.0324 26002.1 -03505.7 -07.6786 26237.3
 10 11 2013  06 32  -21.0328 26002.1 -03505.8 -07.6786 26237.4
 10 11 2013  06 33  -21.0331 26002.3 -03505.8 -07.6787 26237.5
 10 11 2013  06 34  -21.0335 26002.3 -03505.8 -07.6786 26237.5
 10 11 2013  06 35  -21.0338 26002.3 -03505.8 -07.6787 26237.6
 10 11 2013  06 36  -21.0340 26002.4 -03505.8 -07.6787 26237.7
 10 11 2013  06 37  -21.0344 26002.6 -03505.8 -07.6786 26237.8
 10 11 2013  06 38  -21.0345 26002.7 -03505.8 -07.6786 26238.0
 10 11 2013  06 39  -21.0348 26002.7 -03505.8 -07.6785 26238.0
 10 11 2013  06 40  -21.0348 26002.7 -03505.7 -07.6784 26237.9
 10 11 2013  06 41  -21.0347 26002.6 -03505.6 -07.6782 26237.8
 10 11 2013  06 42  -21.0344 26002.5 -03505.5 -07.6780 26237.8
 10 11 2013  06 43  -21.0341 26002.6 -03505.4 -07.6778 26237.8
 10 11 2013  06 44  -21.0343 26002.6 -03505.5 -07.6778 26237.9
 10 11 2013  06 45  -21.0344 26002.7 -03505.5 -07.6779 26237.9
 10 11 2013  06 46  -21.0344 26002.7 -03505.5 -07.6778 26238.0
 10 11 2013  06 47  -21.0343 26002.7 -03505.5 -07.6778 26238.0
 10 11 2013  06 48  -21.0344 26002.7 -03505.5 -07.6778 26238.0
 10 11 2013  06 49  -21.0342 26002.7 -03505.4 -07.6777 26238.0
 10 11 2013  06 50  -21.0342 26002.6 -03505.3 -07.6776 26237.9
 10 11 2013  06 51  -21.0341 26002.7 -03505.3 -07.6776 26237.9
 10 11 2013  06 52  -21.0343 26002.7 -03505.3 -07.6776 26237.9
 10 11 2013  06 53  -21.0346 26002.6 -03505.3 -07.6775 26237.8
 10 11 2013  06 54  -21.0352 26002.4 -03505.3 -07.6775 26237.6
 10 11 2013  06 55  -21.0354 26002.4 -03505.2 -07.6773 26237.6
 10 11 2013  06 56  -21.0357 26002.2 -03505.1 -07.6771 26237.4
 10 11 2013  06 57  -21.0354 26002.1 -03505.0 -07.6770 26237.3
 10 11 2013  06 58  -21.0354 26002.0 -03504.9 -07.6769 26237.2
 10 11 2013  06 59  -21.0352 26002.0 -03504.9 -07.6768 26237.1
 10 11 2013  07 00  -21.0348 26002.0 -03504.9 -07.6767 26237.1
 10 11 2013  07 01  -21.0341 26002.1 -03504.9 -07.6768 26237.3
 10 11 2013  07 02  -21.0339 26002.0 -03504.9 -07.6767 26237.2
 10 11 2013  07 03  -21.0338 26002.1 -03505.0 -07.6769 26237.3
 10 11 2013  07 04  -21.0331 26002.4 -03505.1 -07.6771 26237.5
 10 11 2013  07 05  -21.0330 26002.6 -03505.3 -07.6774 26237.8
 10 11 2013  07 06  -21.0327 26002.9 -03505.4 -07.6776 26238.1
 10 11 2013  07 07  -21.0325 26003.1 -03505.5 -07.6778 26238.3
 10 11 2013  07 08  -21.0320 26003.2 -03505.5 -07.6779 26238.5
 10 11 2013  07 09  -21.0316 26003.2 -03505.5 -07.6778 26238.5
 10 11 2013  07 10  -21.0314 26003.3 -03505.6 -07.6779 26238.5
 10 11 2013  07 11  -21.0314 26003.3 -03505.6 -07.6779 26238.6
 10 11 2013  07 12  -21.0313 26003.3 -03505.6 -07.6779 26238.5
 10 11 2013  07 13  -21.0309 26003.3 -03505.6 -07.6780 26238.6
 10 11 2013  07 14  -21.0306 26003.1 -03505.5 -07.6778 26238.3
 10 11 2013  07 15  -21.0300 26003.2 -03505.5 -07.6778 26238.4
 10 11 2013  07 16  -21.0299 26003.4 -03505.7 -07.6781 26238.7
 10 11 2013  07 17  -21.0294 26003.6 -03505.8 -07.6783 26238.8
 10 11 2013  07 18  -21.0292 26003.7 -03505.9 -07.6784 26239.0
 10 11 2013  07 19  -21.0288 26003.7 -03505.9 -07.6785 26239.0
 10 11 2013  07 20  -21.0283 26003.5 -03505.8 -07.6784 26238.7
 10 11 2013  07 21  -21.0275 26003.2 -03505.7 -07.6782 26238.5
 10 11 2013  07 22  -21.0273 26003.1 -03505.6 -07.6780 26238.3
 10 11 2013  07 23  -21.0272 26003.1 -03505.7 -07.6781 26238.4
 10 11 2013  07 24  -21.0278 26003.4 -03505.9 -07.6786 26238.7
 10 11 2013  07 25  -21.0283 26003.4 -03506.0 -07.6788 26238.7
 10 11 2013  07 26  -21.0284 26003.0 -03505.8 -07.6784 26238.3
 10 11 2013  07 27  -21.0286 26002.8 -03505.7 -07.6783 26238.0
 10 11 2013  07 28  -21.0288 26002.8 -03505.7 -07.6782 26238.0
 10 11 2013  07 29  -21.0290 26002.7 -03505.6 -07.6782 26238.0
 10 11 2013  07 30  -21.0297 26002.5 -03505.6 -07.6781 26237.8
 10 11 2013  07 31  -21.0302 26002.8 -03505.7 -07.6783 26238.1
 10 11 2013  07 32  -21.0306 26003.1 -03505.9 -07.6786 26238.4
 10 11 2013  07 33  -21.0304 26003.4 -03506.0 -07.6787 26238.7
 10 11 2013  07 34  -21.0299 26003.5 -03506.0 -07.6787 26238.8
 10 11 2013  07 35  -21.0298 26003.7 -03506.0 -07.6788 26239.0
 10 11 2013  07 36  -21.0293 26003.9 -03506.1 -07.6788 26239.2
 10 11 2013  07 37  -21.0290 26004.1 -03506.2 -07.6791 26239.4
 10 11 2013  07 38  -21.0296 26004.0 -03506.3 -07.6792 26239.4
 10 11 2013  07 39  -21.0298 26004.0 -03506.3 -07.6792 26239.4
 10 11 2013  07 40  -21.0307 26003.8 -03506.2 -07.6791 26239.1
 10 11 2013  07 41  -21.0304 26003.8 -03506.0 -07.6788 26239.1
 10 11 2013  07 42  -21.0294 26003.5 -03505.8 -07.6784 26238.8
 10 11 2013  07 43  -21.0286 26002.9 -03505.5 -07.6778 26238.1
 10 11 2013  07 44  -21.0286 26002.9 -03505.6 -07.6780 26238.1
 10 11 2013  07 45  -21.0292 26003.0 -03505.8 -07.6784 26238.3
 10 11 2013  07 46  -21.0294 26003.3 -03506.0 -07.6789 26238.5
 10 11 2013  07 47  -21.0290 26003.4 -03506.1 -07.6789 26238.7
 10 11 2013  07 48  -21.0287 26003.6 -03506.1 -07.6791 26238.9
 10 11 2013  07 49  -21.0285 26003.8 -03506.3 -07.6792 26239.1
 10 11 2013  07 50  -21.0289 26003.8 -03506.3 -07.6793 26239.1
 10 11 2013  07 51  -21.0297 26003.6 -03506.3 -07.6794 26238.9
 10 11 2013  07 52  -21.0289 26003.3 -03506.1 -07.6791 26238.6
 10 11 2013  07 53  -21.0277 26003.4 -03506.1 -07.6789 26238.7
 10 11 2013  07 54  -21.0275 26003.5 -03506.1 -07.6790 26238.8
 10 11 2013  07 55  -21.0276 26003.5 -03506.1 -07.6791 26238.9
 10 11 2013  07 56  -21.0279 26003.5 -03506.2 -07.6792 26238.9
 10 11 2013  07 57  -21.0279 26003.5 -03506.2 -07.6792 26238.9
 10 11 2013  07 58  -21.0277 26003.5 -03506.2 -07.6791 26238.8
 10 11 2013  07 59  -21.0275 26003.6 -03506.2 -07.6792 26238.9
 10 11 2013  08 00  -21.0275 26003.6 -03506.2 -07.6793 26238.9
 10 11 2013  08 01  -21.0274 26003.6 -03506.3 -07.6793 26238.9
 10 11 2013  08 02  -21.0272 26003.7 -03506.3 -07.6794 26239.0
 10 11 2013  08 03  -21.0276 26003.9 -03506.4 -07.6796 26239.2
 10 11 2013  08 04  -21.0274 26003.9 -03506.4 -07.6796 26239.2
 10 11 2013  08 05  -21.0270 26004.1 -03506.5 -07.6797 26239.4
 10 11 2013  08 06  -21.0273 26004.0 -03506.5 -07.6797 26239.4
 10 11 2013  08 07  -21.0264 26003.8 -03506.4 -07.6794 26239.1
 10 11 2013  08 08  -21.0259 26003.9 -03506.3 -07.6793 26239.2
 10 11 2013  08 09  -21.0254 26004.1 -03506.4 -07.6794 26239.4
 10 11 2013  08 10  -21.0256 26004.1 -03506.5 -07.6796 26239.5
 10 11 2013  08 11  -21.0257 26004.2 -03506.6 -07.6798 26239.6
 10 11 2013  08 12  -21.0256 26004.2 -03506.6 -07.6798 26239.6
 10 11 2013  08 13  -21.0256 26004.3 -03506.6 -07.6798 26239.6
 10 11 2013  08 14  -21.0254 26004.2 -03506.5 -07.6796 26239.5
 10 11 2013  08 15  -21.0256 26004.0 -03506.4 -07.6794 26239.3
 10 11 2013  08 16  -21.0255 26003.8 -03506.2 -07.6791 26239.1
 10 11 2013  08 17  -21.0251 26003.5 -03506.0 -07.6788 26238.8
 10 11 2013  08 18  -21.0250 26003.4 -03505.9 -07.6786 26238.7
 10 11 2013  08 19  -21.0251 26003.4 -03505.9 -07.6787 26238.7
 10 11 2013  08 20  -21.0253 26003.3 -03505.9 -07.6786 26238.6
 10 11 2013  08 21  -21.0250 26003.3 -03505.9 -07.6785 26238.6
 10 11 2013  08 22  -21.0248 26003.2 -03505.8 -07.6784 26238.5
 10 11 2013  08 23  -21.0246 26003.0 -03505.7 -07.6783 26238.3
 10 11 2013  08 24  -21.0245 26002.8 -03505.7 -07.6782 26238.0
 10 11 2013  08 25  -21.0242 26002.8 -03505.7 -07.6782 26238.0
 10 11 2013  08 26  -21.0239 26002.9 -03505.8 -07.6785 26238.2
 10 11 2013  08 27  -21.0239 26002.7 -03505.8 -07.6785 26238.0
 10 11 2013  08 28  -21.0231 26002.4 -03505.7 -07.6784 26237.7
 10 11 2013  08 29  -21.0227 26002.4 -03505.8 -07.6785 26237.6
 10 11 2013  08 30  -21.0224 26002.2 -03505.8 -07.6788 26237.5
 10 11 2013  08 31  -21.0219 26002.2 -03506.0 -07.6790 26237.5
 10 11 2013  08 32  -21.0216 26002.0 -03506.0 -07.6793 26237.3
 10 11 2013  08 33  -21.0211 26001.7 -03506.0 -07.6794 26237.0
 10 11 2013  08 34  -21.0210 26001.6 -03506.1 -07.6796 26236.9
 10 11 2013  08 35  -21.0210 26001.5 -03506.3 -07.6799 26236.8
 10 11 2013  08 36  -21.0204 26001.3 -03506.4 -07.6802 26236.7
 10 11 2013  08 37  -21.0200 26001.2 -03506.4 -07.6803 26236.5
 10 11 2013  08 38  -21.0198 26000.9 -03506.5 -07.6805 26236.3
 10 11 2013  08 39  -21.0198 26000.8 -03506.5 -07.6807 26236.2
 10 11 2013  08 40  -21.0196 26000.6 -03506.7 -07.6810 26236.0
 10 11 2013  08 41  -21.0195 26000.4 -03506.7 -07.6813 26235.8
 10 11 2013  08 42  -21.0194 26000.0 -03506.8 -07.6815 26235.5
 10 11 2013  08 43  -21.0194 25999.9 -03506.9 -07.6817 26235.3
 10 11 2013  08 44  -21.0197 25999.8 -03507.1 -07.6821 26235.3
 10 11 2013  08 45  -21.0200 25999.8 -03507.3 -07.6826 26235.3
 10 11 2013  08 46  -21.0206 26000.1 -03507.5 -07.6831 26235.6
 10 11 2013  08 47  -21.0214 26000.4 -03507.9 -07.6837 26236.0
 10 11 2013  08 48  -21.0218 26000.5 -03508.0 -07.6840 26236.1
 10 11 2013  08 49  -21.0216 26000.5 -03508.1 -07.6841 26236.1
 10 11 2013  08 50  -21.0211 26000.0 -03507.9 -07.6838 26235.6
 10 11 2013  08 51  -21.0207 25999.8 -03507.9 -07.6839 26235.3
 10 11 2013  08 52  -21.0206 25999.3 -03507.8 -07.6839 26234.9
 10 11 2013  08 53  -21.0201 25999.2 -03507.9 -07.6840 26234.7
 10 11 2013  08 54  -21.0202 25999.4 -03508.1 -07.6845 26235.0
 10 11 2013  08 55  -21.0200 25999.3 -03508.3 -07.6849 26235.0
 10 11 2013  08 56  -21.0194 25998.9 -03508.2 -07.6849 26234.5
 10 11 2013  08 57  -21.0184 25998.3 -03508.1 -07.6849 26233.9
 10 11 2013  08 58  -21.0159 25997.7 -03508.0 -07.6847 26233.3
 10 11 2013  08 59  -21.0154 25997.9 -03508.4 -07.6855 26233.6
 10 11 2013  09 00  -21.0160 25998.0 -03508.8 -07.6865 26233.7
 10 11 2013  09 01  -21.0162 25997.8 -03509.1 -07.6871 26233.6
 10 11 2013  09 02  -21.0162 25997.7 -03509.3 -07.6875 26233.5
 10 11 2013  09 03  -21.0166 25997.9 -03509.5 -07.6880 26233.7
 10 11 2013  09 04  -21.0169 25998.2 -03509.9 -07.6887 26234.1
 10 11 2013  09 05  -21.0170 25998.4 -03510.1 -07.6892 26234.3
 10 11 2013  09 06  -21.0174 25998.7 -03510.4 -07.6896 26234.6
 10 11 2013  09 07  -21.0180 25998.7 -03510.5 -07.6899 26234.6
 10 11 2013  09 08  -21.0186 25998.8 -03510.7 -07.6902 26234.8
 10 11 2013  09 09  -21.0189 25999.0 -03510.8 -07.6905 26234.9
 10 11 2013  09 10  -21.0190 25999.0 -03510.9 -07.6907 26235.0
 10 11 2013  09 11  -21.0194 25998.9 -03511.0 -07.6909 26234.9
 10 11 2013  09 12  -21.0200 25998.4 -03510.9 -07.6909 26234.4
 10 11 2013  09 13  -21.0208 25998.1 -03510.9 -07.6910 26234.1
 10 11 2013  09 14  -21.0210 25997.6 -03510.9 -07.6910 26233.6
 10 11 2013  09 15  -21.0214 25997.6 -03511.0 -07.6912 26233.6
 10 11 2013  09 16  -21.0218 25997.6 -03511.1 -07.6916 26233.7
 10 11 2013  09 17  -21.0222 25997.7 -03511.3 -07.6919 26233.8
 10 11 2013  09 18  -21.0231 25998.0 -03511.5 -07.6923 26234.1
 10 11 2013  09 19  -21.0238 25997.7 -03511.5 -07.6923 26233.8
 10 11 2013  09 20  -21.0246 25997.7 -03511.6 -07.6925 26233.8
 10 11 2013  09 21  -21.0254 25997.6 -03511.6 -07.6926 26233.7
 10 11 2013  09 22  -21.0261 25997.7 -03511.7 -07.6928 26233.8
 10 11 2013  09 23  -21.0269 25997.8 -03511.8 -07.6930 26233.9
 10 11 2013  09 24  -21.0273 25998.1 -03512.1 -07.6934 26234.3
 10 11 2013  09 25  -21.0284 25998.4 -03512.3 -07.6938 26234.6
 10 11 2013  09 26  -21.0295 25998.6 -03512.3 -07.6939 26234.7
 10 11 2013  09 27  -21.0308 25998.3 -03512.2 -07.6937 26234.4
 10 11 2013  09 28  -21.0318 25998.1 -03512.1 -07.6935 26234.2
 10 11 2013  09 29  -21.0324 25998.0 -03512.0 -07.6933 26234.1
 10 11 2013  09 30  -21.0329 25998.0 -03512.0 -07.6932 26234.2
 10 11 2013  09 31  -21.0339 25998.6 -03512.1 -07.6934 26234.8
 10 11 2013  09 32  -21.0349 25999.0 -03512.2 -07.6935 26235.1
 10 11 2013  09 33  -21.0351 25999.1 -03512.1 -07.6932 26235.2
 10 11 2013  09 34  -21.0346 25999.0 -03512.0 -07.6930 26235.2
 10 11 2013  09 35  -21.0341 25999.3 -03511.9 -07.6928 26235.4
 10 11 2013  09 36  -21.0350 25999.8 -03512.1 -07.6931 26235.9
 10 11 2013  09 37  -21.0355 25999.8 -03512.2 -07.6932 26236.0
 10 11 2013  09 38  -21.0354 25999.7 -03512.1 -07.6930 26235.8
 10 11 2013  09 39  -21.0353 25999.6 -03512.0 -07.6929 26235.7
 10 11 2013  09 40  -21.0354 25999.5 -03512.0 -07.6929 26235.6
 10 11 2013  09 41  -21.0355 25999.3 -03512.0 -07.6930 26235.4
 10 11 2013  09 42  -21.0360 25999.1 -03512.1 -07.6931 26235.2
 10 11 2013  09 43  -21.0369 25998.9 -03512.1 -07.6932 26235.1
 10 11 2013  09 44  -21.0376 25998.9 -03512.1 -07.6934 26235.0
 10 11 2013  09 45  -21.0378 25998.4 -03512.1 -07.6933 26234.6
 10 11 2013  09 46  -21.0385 25998.4 -03512.2 -07.6937 26234.5
 10 11 2013  09 47  -21.0384 25998.6 -03512.5 -07.6942 26234.8
 10 11 2013  09 48  -21.0390 25999.5 -03512.8 -07.6947 26235.7
 10 11 2013  09 49  -21.0405 26000.6 -03513.3 -07.6955 26236.9
 10 11 2013  09 50  -21.0419 26001.0 -03513.4 -07.6955 26237.3
 10 11 2013  09 51  -21.0425 26000.8 -03513.2 -07.6951 26237.1
 10 11 2013  09 52  -21.0429 26000.6 -03513.0 -07.6948 26236.8
 10 11 2013  09 53  -21.0428 26000.4 -03512.9 -07.6946 26236.6
 10 11 2013  09 54  -21.0428 26001.0 -03513.0 -07.6947 26237.2
 10 11 2013  09 55  -21.0434 26001.4 -03513.1 -07.6948 26237.6
 10 11 2013  09 56  -21.0446 26001.8 -03513.2 -07.6949 26238.1
 10 11 2013  09 57  -21.0452 26002.5 -03513.4 -07.6951 26238.8
 10 11 2013  09 58  -21.0441 26002.6 -03513.3 -07.6948 26238.9
 10 11 2013  09 59  -21.0427 26003.1 -03513.3 -07.6947 26239.3
 10 11 2013  10 00  -21.0436 26004.0 -03513.7 -07.6952 26240.3
 10 11 2013  10 01  -21.0437 26004.6 -03513.8 -07.6952 26240.9
 10 11 2013  10 02  -21.0428 26004.5 -03513.5 -07.6947 26240.8
 10 11 2013  10 03  -21.0431 26004.6 -03513.4 -07.6945 26240.8
 10 11 2013  10 04  -21.0429 26004.5 -03513.4 -07.6944 26240.8
 10 11 2013  10 05  -21.0423 26004.2 -03513.2 -07.6941 26240.4
 10 11 2013  10 06  -21.0417 26004.1 -03513.1 -07.6940 26240.3
 10 11 2013  10 07  -21.0412 26003.6 -03513.0 -07.6938 26239.8
 10 11 2013  10 08  -21.0406 26003.6 -03513.1 -07.6940 26239.9
 10 11 2013  10 09  -21.0403 26003.7 -03513.2 -07.6943 26240.0
 10 11 2013  10 10  -21.0401 26004.2 -03513.5 -07.6948 26240.5
 10 11 2013  10 11  -21.0393 26004.6 -03513.7 -07.6950 26240.9
 10 11 2013  10 12  -21.0387 26004.3 -03513.6 -07.6950 26240.6
 10 11 2013  10 13  -21.0381 26004.1 -03513.7 -07.6952 26240.4
 10 11 2013  10 14  -21.0370 26003.7 -03513.7 -07.6953 26240.0
 10 11 2013  10 15  -21.0363 26003.3 -03513.7 -07.6955 26239.6
 10 11 2013  10 16  -21.0357 26003.2 -03513.9 -07.6959 26239.5
 10 11 2013  10 17  -21.0349 26002.9 -03514.0 -07.6962 26239.3
 10 11 2013  10 18  -21.0349 26003.0 -03514.2 -07.6965 26239.4
 10 11 2013  10 19  -21.0358 26003.0 -03514.3 -07.6970 26239.4
 10 11 2013  10 20  -21.0357 26002.5 -03514.3 -07.6969 26238.9
 10 11 2013  10 21  -21.0354 26002.2 -03514.3 -07.6972 26238.6
 10 11 2013  10 22  -21.0354 26002.3 -03514.6 -07.6977 26238.7
 10 11 2013  10 23  -21.0350 26002.4 -03514.9 -07.6983 26238.9
 10 11 2013  10 24  -21.0350 26002.7 -03515.2 -07.6988 26239.2
 10 11 2013  10 25  -21.0357 26003.0 -03515.4 -07.6992 26239.6
 10 11 2013  10 26  -21.0369 26003.5 -03515.6 -07.6996 26240.0
 10 11 2013  10 27  -21.0385 26003.8 -03515.7 -07.6997 26240.4
 10 11 2013  10 28  -21.0393 26004.0 -03515.7 -07.6996 26240.6
 10 11 2013  10 29  -21.0391 26003.7 -03515.4 -07.6991 26240.2
 10 11 2013  10 30  -21.0388 26003.5 -03515.3 -07.6989 26240.0
 10 11 2013  10 31  -21.0387 26003.7 -03515.4 -07.6991 26240.3
 10 11 2013  10 32  -21.0390 26004.5 -03515.8 -07.6996 26241.1
 10 11 2013  10 33  -21.0393 26005.1 -03515.9 -07.6997 26241.7
 10 11 2013  10 34  -21.0397 26005.7 -03516.0 -07.6997 26242.3
 10 11 2013  10 35  -21.0400 26006.2 -03516.0 -07.6996 26242.8
 10 11 2013  10 36  -21.0400 26006.6 -03515.9 -07.6993 26243.2
 10 11 2013  10 37  -21.0398 26006.9 -03515.8 -07.6990 26243.5
 10 11 2013  10 38  -21.0391 26007.0 -03515.6 -07.6984 26243.5
 10 11 2013  10 39  -21.0390 26007.5 -03515.5 -07.6982 26244.0
 10 11 2013  10 40  -21.0391 26008.2 -03515.6 -07.6982 26244.8
 10 11 2013  10 41  -21.0398 26008.9 -03515.7 -07.6982 26245.4
 10 11 2013  10 42  -21.0405 26009.2 -03515.7 -07.6980 26245.8
 10 11 2013  10 43  -21.0400 26009.1 -03515.5 -07.6977 26245.6
 10 11 2013  10 44  -21.0382 26008.6 -03515.2 -07.6973 26245.1
 10 11 2013  10 45  -21.0367 26007.7 -03514.9 -07.6968 26244.2
 10 11 2013  10 46  -21.0354 26007.2 -03514.7 -07.6965 26243.6
 10 11 2013  10 47  -21.0357 26007.0 -03514.8 -07.6968 26243.5
 10 11 2013  10 48  -21.0371 26007.4 -03515.2 -07.6975 26243.8
 10 11 2013  10 49  -21.0378 26007.9 -03515.5 -07.6980 26244.4
 10 11 2013  10 50  -21.0377 26007.5 -03515.4 -07.6978 26244.0
 10 11 2013  10 51  -21.0378 26006.9 -03515.2 -07.6977 26243.3
 10 11 2013  10 52  -21.0380 26006.2 -03515.1 -07.6976 26242.6
 10 11 2013  10 53  -21.0379 26005.3 -03514.9 -07.6975 26241.7
 10 11 2013  10 54  -21.0382 26004.6 -03514.8 -07.6975 26241.0
 10 11 2013  10 55  -21.0382 26004.6 -03514.9 -07.6978 26241.0
 10 11 2013  10 56  -21.0389 26005.0 -03515.2 -07.6982 26241.5
 10 11 2013  10 57  -21.0402 26005.5 -03515.4 -07.6985 26242.1
 10 11 2013  10 58  -21.0406 26005.9 -03515.5 -07.6987 26242.4
 10 11 2013  10 59  -21.0409 26006.1 -03515.5 -07.6986 26242.6
 10 11 2013  11 00  -21.0415 26006.7 -03515.7 -07.6988 26243.3
 10 11 2013  11 01  -21.0421 26007.2 -03515.8 -07.6988 26243.8
 10 11 2013  11 02  -21.0423 26007.7 -03515.8 -07.6988 26244.3
 10 11 2013  11 03  -21.0424 26008.2 -03515.7 -07.6985 26244.8
 10 11 2013  11 04  -21.0430 26008.8 -03515.7 -07.6983 26245.3
 10 11 2013  11 05  -21.0431 26009.5 -03515.8 -07.6983 26246.1
 10 11 2013  11 06  -21.0434 26009.5 -03515.6 -07.6978 26246.0
 10 11 2013  11 07  -21.0439 26009.0 -03515.3 -07.6973 26245.5
 10 11 2013  11 08  -21.0436 26008.8 -03515.1 -07.6969 26245.2
 10 11 2013  11 09  -21.0432 26008.5 -03514.9 -07.6965 26244.9
 10 11 2013  11 10  -21.0430 26008.5 -03514.8 -07.6962 26244.9
 10 11 2013  11 11  -21.0420 26008.6 -03514.6 -07.6958 26245.0
 10 11 2013  11 12  -21.0419 26009.0 -03514.5 -07.6955 26245.3
 10 11 2013  11 13  -21.0424 26009.8 -03514.6 -07.6955 26246.2
 10 11 2013  11 14  -21.0423 26010.4 -03514.6 -07.6954 26246.8
 10 11 2013  11 15  -21.0419 26010.3 -03514.3 -07.6948 26246.7
 10 11 2013  11 16  -21.0416 26010.4 -03514.1 -07.6943 26246.7
 10 11 2013  11 17  -21.0418 26010.2 -03514.0 -07.6940 26246.5
 10 11 2013  11 18  -21.0420 26010.4 -03514.0 -07.6940 26246.7
 10 11 2013  11 19  -21.0425 26009.9 -03513.8 -07.6937 26246.2
 10 11 2013  11 20  -21.0421 26009.5 -03513.6 -07.6934 26245.8
 10 11 2013  11 21  -21.0423 26009.1 -03513.5 -07.6933 26245.4
 10 11 2013  11 22  -21.0428 26008.9 -03513.5 -07.6934 26245.1
 10 11 2013  11 23  -21.0425 26008.8 -03513.6 -07.6936 26245.0
 10 11 2013  11 24  -21.0427 26008.9 -03513.7 -07.6939 26245.2
 10 11 2013  11 25  -21.0425 26008.8 -03513.7 -07.6939 26245.1
 10 11 2013  11 26  -21.0421 26008.5 -03513.6 -07.6938 26244.8
 10 11 2013  11 27  -21.0424 26008.3 -03513.6 -07.6938 26244.5
 10 11 2013  11 28  -21.0428 26008.0 -03513.6 -07.6938 26244.3
 10 11 2013  11 29  -21.0431 26007.4 -03513.4 -07.6936 26243.6
 10 11 2013  11 30  -21.0423 26006.6 -03513.2 -07.6935 26242.8
 10 11 2013  11 31  -21.0413 26005.3 -03512.9 -07.6931 26241.5
 10 11 2013  11 32  -21.0408 26005.0 -03512.9 -07.6933 26241.2
 10 11 2013  11 33  -21.0402 26004.9 -03513.1 -07.6937 26241.1
 10 11 2013  11 34  -21.0396 26005.2 -03513.4 -07.6943 26241.4
 10 11 2013  11 35  -21.0404 26005.6 -03513.7 -07.6949 26241.9
 10 11 2013  11 36  -21.0415 26006.1 -03513.9 -07.6952 26242.4
 10 11 2013  11 37  -21.0425 26006.5 -03514.1 -07.6954 26242.9
 10 11 2013  11 38  -21.0432 26006.5 -03513.9 -07.6951 26242.8
 10 11 2013  11 39  -21.0432 26006.2 -03513.7 -07.6946 26242.5
 10 11 2013  11 40  -21.0429 26005.9 -03513.5 -07.6943 26242.2
 10 11 2013  11 41  -21.0426 26006.2 -03513.5 -07.6943 26242.4
 10 11 2013  11 42  -21.0417 26006.0 -03513.5 -07.6942 26242.2
 10 11 2013  11 43  -21.0407 26006.6 -03513.7 -07.6944 26242.9
 10 11 2013  11 44  -21.0400 26008.0 -03514.1 -07.6950 26244.3
 10 11 2013  11 45  -21.0399 26009.1 -03514.4 -07.6953 26245.5
 10 11 2013  11 46  -21.0415 26009.4 -03514.3 -07.6949 26245.7
 10 11 2013  11 47  -21.0422 26009.7 -03514.1 -07.6946 26246.0
 10 11 2013  11 48  -21.0422 26010.0 -03514.0 -07.6942 26246.3
 10 11 2013  11 49  -21.0418 26010.5 -03513.9 -07.6938 26246.8
 10 11 2013  11 50  -21.0409 26010.8 -03513.8 -07.6934 26247.1
 10 11 2013  11 51  -21.0398 26011.0 -03513.6 -07.6929 26247.3
 10 11 2013  11 52  -21.0389 26011.5 -03513.6 -07.6928 26247.7
 10 11 2013  11 53  -21.0383 26011.6 -03513.4 -07.6924 26247.8
 10 11 2013  11 54  -21.0378 26012.2 -03513.4 -07.6923 26248.4
 10 11 2013  11 55  -21.0380 26012.6 -03513.3 -07.6918 26248.7
 10 11 2013  11 56  -21.0379 26013.4 -03513.3 -07.6916 26249.5
 10 11 2013  11 57  -21.0383 26014.2 -03513.2 -07.6913 26250.3
 10 11 2013  11 58  -21.0388 26014.9 -03513.1 -07.6909 26251.0
 10 11 2013  11 59  -21.0392 26015.5 -03513.0 -07.6904 26251.6
 10 11 2013  12 00  -21.0393 26015.8 -03512.6 -07.6895 26251.9
 10 11 2013  12 01  -21.0390 26016.5 -03512.5 -07.6889 26252.6
 10 11 2013  12 02  -21.0386 26017.3 -03512.3 -07.6884 26253.3
 10 11 2013  12 03  -21.0388 26017.7 -03512.1 -07.6877 26253.7
 10 11 2013  12 04  -21.0390 26018.3 -03511.9 -07.6872 26254.2
 10 11 2013  12 05  -21.0386 26018.5 -03511.6 -07.6865 26254.4
 10 11 2013  12 06  -21.0376 26019.2 -03511.4 -07.6859 26255.1
 10 11 2013  12 07  -21.0371 26020.2 -03511.4 -07.6856 26256.1
 10 11 2013  12 08  -21.0379 26020.8 -03511.3 -07.6852 26256.6
 10 11 2013  12 09  -21.0382 26021.5 -03511.2 -07.6848 26257.3
 10 11 2013  12 10  -21.0381 26021.5 -03510.9 -07.6840 26257.2
 10 11 2013  12 11  -21.0381 26021.4 -03510.5 -07.6833 26257.2
 10 11 2013  12 12  -21.0373 26021.4 -03510.3 -07.6828 26257.1
 10 11 2013  12 13  -21.0365 26020.7 -03509.8 -07.6820 26256.3
 10 11 2013  12 14  -21.0364 26020.0 -03509.5 -07.6815 26255.6
 10 11 2013  12 15  -21.0368 26019.7 -03509.4 -07.6814 26255.3
 10 11 2013  12 16  -21.0372 26019.7 -03509.4 -07.6814 26255.3
 10 11 2013  12 17  -21.0375 26020.0 -03509.5 -07.6816 26255.6
 10 11 2013  12 18  -21.0376 26020.7 -03509.8 -07.6819 26256.3
 10 11 2013  12 19  -21.0377 26020.8 -03509.7 -07.6817 26256.4
 10 11 2013  12 20  -21.0377 26021.3 -03509.8 -07.6817 26256.9
 10 11 2013  12 21  -21.0374 26021.5 -03509.6 -07.6813 26257.1
 10 11 2013  12 22  -21.0372 26021.7 -03509.6 -07.6811 26257.3
 10 11 2013  12 23  -21.0373 26022.2 -03509.6 -07.6810 26257.8
 10 11 2013  12 24  -21.0383 26022.2 -03509.4 -07.6806 26257.8
 10 11 2013  12 25  -21.0393 26022.7 -03509.4 -07.6806 26258.3
 10 11 2013  12 26  -21.0394 26023.1 -03509.3 -07.6802 26258.7
 10 11 2013  12 27  -21.0395 26023.2 -03509.1 -07.6797 26258.8
 10 11 2013  12 28  -21.0392 26023.5 -03509.0 -07.6793 26259.0
 10 11 2013  12 29  -21.0389 26024.0 -03508.9 -07.6791 26259.5
 10 11 2013  12 30  -21.0389 26023.9 -03508.6 -07.6785 26259.4
 10 11 2013  12 31  -21.0387 26024.4 -03508.6 -07.6783 26259.9
 10 11 2013  12 32  -21.0384 26024.5 -03508.4 -07.6779 26260.0
 10 11 2013  12 33  -21.0375 26025.3 -03508.5 -07.6779 26260.7
 10 11 2013  12 34  -21.0372 26025.6 -03508.4 -07.6775 26261.0
 10 11 2013  12 35  -21.0369 26026.5 -03508.5 -07.6776 26261.9
 10 11 2013  12 36  -21.0368 26027.3 -03508.7 -07.6775 26262.8
 10 11 2013  12 37  -21.0368 26028.2 -03508.6 -07.6773 26263.6
 10 11 2013  12 38  -21.0368 26028.6 -03508.4 -07.6767 26264.0
 10 11 2013  12 39  -21.0369 26028.6 -03508.2 -07.6762 26264.0
 10 11 2013  12 40  -21.0366 26029.0 -03508.1 -07.6759 26264.3
 10 11 2013  12 41  -21.0368 26029.4 -03508.1 -07.6757 26264.8
 10 11 2013  12 42  -21.0372 26030.1 -03508.2 -07.6757 26265.4
 10 11 2013  12 43  -21.0377 26031.2 -03508.3 -07.6756 26266.5
 10 11 2013  12 44  -21.0379 26031.6 -03508.1 -07.6752 26266.9
 10 11 2013  12 45  -21.0376 26031.7 -03507.8 -07.6745 26267.0
 10 11 2013  12 46  -21.0369 26031.6 -03507.4 -07.6736 26266.8
 10 11 2013  12 47  -21.0363 26031.9 -03507.3 -07.6732 26267.1
 10 11 2013  12 48  -21.0361 26032.5 -03507.2 -07.6730 26267.7
 10 11 2013  12 49  -21.0363 26033.7 -03507.4 -07.6729 26268.9
 10 11 2013  12 50  -21.0367 26035.4 -03507.7 -07.6731 26270.6
 10 11 2013  12 51  -21.0373 26037.2 -03507.8 -07.6729 26272.4
 10 11 2013  12 52  -21.0387 26039.1 -03507.9 -07.6726 26274.4
 10 11 2013  12 53  -21.0396 26038.5 -03506.9 -07.6706 26273.6
 10 11 2013  12 54  -21.0384 26037.3 -03505.8 -07.6685 26272.3
 10 11 2013  12 55  -21.0376 26037.7 -03505.6 -07.6679 26272.6
 10 11 2013  12 56  -21.0377 26038.6 -03505.7 -07.6678 26273.6
 10 11 2013  12 57  -21.0379 26039.2 -03505.5 -07.6674 26274.1
 10 11 2013  12 58  -21.0376 26038.4 -03504.9 -07.6663 26273.3
 10 11 2013  12 59  -21.0374 26038.5 -03504.8 -07.6660 26273.3
 10 11 2013  13 00  -21.0372 26039.5 -03505.0 -07.6661 26274.3
 10 11 2013  13 01  -21.0366 26040.9 -03505.2 -07.6662 26275.7
 10 11 2013  13 02  -21.0349 26042.6 -03505.4 -07.6661 26277.5
 10 11 2013  13 03  -21.0341 26044.2 -03505.4 -07.6657 26279.1
 10 11 2013  13 04  -21.0347 26046.3 -03505.7 -07.6656 26281.2
 10 11 2013  13 05  -21.0360 26047.5 -03505.4 -07.6647 26282.3
 10 11 2013  13 06  -21.0359 26048.0 -03504.8 -07.6633 26282.8
 10 11 2013  13 07  -21.0355 26047.5 -03503.9 -07.6615 26282.1
 10 11 2013  13 08  -21.0348 26045.8 -03502.8 -07.6595 26280.2
 10 11 2013  13 09  -21.0344 26044.1 -03502.0 -07.6582 26278.5
 10 11 2013  13 10  -21.0340 26043.1 -03501.6 -07.6577 26277.4
 10 11 2013  13 11  -21.0332 26042.1 -03501.3 -07.6573 26276.4
 10 11 2013  13 12  -21.0321 26041.0 -03501.0 -07.6571 26275.3
 10 11 2013  13 13  -21.0315 26040.8 -03501.2 -07.6574 26275.1
 10 11 2013  13 14  -21.0312 26041.9 -03501.8 -07.6584 26276.3
 10 11 2013  13 15  -21.0316 26043.2 -03502.3 -07.6592 26277.7
 10 11 2013  13 16  -21.0323 26044.0 -03502.5 -07.6594 26278.5
 10 11 2013  13 17  -21.0334 26044.0 -03502.3 -07.6589 26278.4
 10 11 2013  13 18  -21.0339 26043.7 -03501.8 -07.6580 26278.1
 10 11 2013  13 19  -21.0339 26043.5 -03501.4 -07.6572 26277.8
 10 11 2013  13 20  -21.0333 26043.5 -03501.2 -07.6567 26277.8
 10 11 2013  13 21  -21.0326 26043.8 -03501.0 -07.6563 26278.1
 10 11 2013  13 22  -21.0325 26044.3 -03501.1 -07.6563 26278.6
 10 11 2013  13 23  -21.0321 26044.6 -03501.1 -07.6562 26278.9
 10 11 2013  13 24  -21.0316 26044.2 -03500.8 -07.6557 26278.5
 10 11 2013  13 25  -21.0318 26043.5 -03500.5 -07.6552 26277.7
 10 11 2013  13 26  -21.0315 26042.3 -03500.0 -07.6546 26276.4
 10 11 2013  13 27  -21.0313 26041.6 -03500.0 -07.6546 26275.7
 10 11 2013  13 28  -21.0314 26041.1 -03500.0 -07.6547 26275.3
 10 11 2013  13 29  -21.0321 26041.5 -03500.3 -07.6553 26275.7
 10 11 2013  13 30  -21.0335 26042.4 -03500.8 -07.6563 26276.6
 10 11 2013  13 31  -21.0341 26042.2 -03500.7 -07.6561 26276.4
 10 11 2013  13 32  -21.0336 26042.5 -03500.7 -07.6560 26276.7
 10 11 2013  13 33  -21.0341 26043.4 -03501.0 -07.6563 26277.6
 10 11 2013  13 34  -21.0356 26044.8 -03501.4 -07.6567 26279.1
 10 11 2013  13 35  -21.0373 26045.8 -03501.5 -07.6568 26280.2
 10 11 2013  13 36  -21.0383 26045.7 -03501.0 -07.6557 26280.0
 10 11 2013  13 37  -21.0382 26045.2 -03500.4 -07.6546 26279.4
 10 11 2013  13 38  -21.0378 26044.9 -03500.0 -07.6538 26279.1
 10 11 2013  13 39  -21.0370 26044.8 -03499.8 -07.6532 26278.9
 10 11 2013  13 40  -21.0364 26044.8 -03499.6 -07.6528 26278.9
 10 11 2013  13 41  -21.0359 26044.8 -03499.5 -07.6526 26278.8
 10 11 2013  13 42  -21.0355 26044.8 -03499.4 -07.6525 26278.8
 10 11 2013  13 43  -21.0353 26045.0 -03499.4 -07.6525 26279.1
 10 11 2013  13 44  -21.0350 26045.2 -03499.4 -07.6524 26279.2
 10 11 2013  13 45  -21.0345 26044.9 -03499.3 -07.6521 26279.0
 10 11 2013  13 46  -21.0337 26044.8 -03499.1 -07.6519 26278.8
 10 11 2013  13 47  -21.0332 26045.1 -03499.2 -07.6519 26279.1
 10 11 2013  13 48  -21.0331 26046.0 -03499.5 -07.6523 26280.0
 10 11 2013  13 49  -21.0337 26046.4 -03499.5 -07.6523 26280.4
 10 11 2013  13 50  -21.0337 26046.0 -03499.1 -07.6515 26280.0
 10 11 2013  13 51  -21.0335 26044.9 -03498.5 -07.6505 26278.9
 10 11 2013  13 52  -21.0327 26043.9 -03498.1 -07.6498 26277.8
 10 11 2013  13 53  -21.0324 26043.6 -03498.0 -07.6498 26277.4
 10 11 2013  13 54  -21.0328 26044.1 -03498.3 -07.6504 26278.0
 10 11 2013  13 55  -21.0340 26044.3 -03498.5 -07.6507 26278.3
 10 11 2013  13 56  -21.0343 26044.6 -03498.6 -07.6508 26278.5
 10 11 2013  13 57  -21.0348 26045.2 -03498.8 -07.6511 26279.1
 10 11 2013  13 58  -21.0355 26046.0 -03499.0 -07.6514 26279.9
 10 11 2013  13 59  -21.0357 26046.7 -03499.1 -07.6512 26280.7
 10 11 2013  14 00  -21.0359 26047.2 -03499.0 -07.6508 26281.1
 10 11 2013  14 01  -21.0358 26047.4 -03498.8 -07.6503 26281.4
 10 11 2013  14 02  -21.0354 26047.4 -03498.5 -07.6498 26281.3
 10 11 2013  14 03  -21.0347 26047.4 -03498.3 -07.6492 26281.3
 10 11 2013  14 04  -21.0340 26047.0 -03497.9 -07.6485 26280.8
 10 11 2013  14 05  -21.0338 26047.3 -03497.9 -07.6485 26281.1
 10 11 2013  14 06  -21.0345 26047.3 -03497.9 -07.6484 26281.1
 10 11 2013  14 07  -21.0342 26047.5 -03497.9 -07.6484 26281.3
 10 11 2013  14 08  -21.0338 26047.7 -03497.9 -07.6484 26281.5
 10 11 2013  14 09  -21.0335 26047.2 -03497.6 -07.6479 26281.0
 10 11 2013  14 10  -21.0331 26046.5 -03497.3 -07.6474 26280.2
 10 11 2013  14 11  -21.0330 26046.0 -03497.2 -07.6473 26279.7
 10 11 2013  14 12  -21.0332 26046.0 -03497.3 -07.6476 26279.8
 10 11 2013  14 13  -21.0336 26046.2 -03497.5 -07.6479 26280.0
 10 11 2013  14 14  -21.0343 26046.3 -03497.6 -07.6482 26280.1
 10 11 2013  14 15  -21.0344 26045.9 -03497.4 -07.6478 26279.7
 10 11 2013  14 16  -21.0346 26046.2 -03497.5 -07.6480 26280.0
 10 11 2013  14 17  -21.0351 26046.6 -03497.6 -07.6481 26280.4
 10 11 2013  14 18  -21.0364 26048.1 -03498.2 -07.6488 26281.9
 10 11 2013  14 19  -21.0368 26049.6 -03498.5 -07.6492 26283.5
 10 11 2013  14 20  -21.0363 26050.3 -03498.4 -07.6487 26284.2
 10 11 2013  14 21  -21.0366 26051.3 -03498.3 -07.6483 26285.1
 10 11 2013  14 22  -21.0376 26051.9 -03498.2 -07.6477 26285.8
 10 11 2013  14 23  -21.0386 26052.9 -03498.0 -07.6472 26286.7
 10 11 2013  14 24  -21.0397 26054.1 -03497.9 -07.6466 26287.8
 10 11 2013  14 25  -21.0413 26055.1 -03497.8 -07.6459 26288.8
 10 11 2013  14 26  -21.0430 26055.9 -03497.4 -07.6449 26289.5
 10 11 2013  14 27  -21.0427 26056.1 -03496.8 -07.6435 26289.7
 10 11 2013  14 28  -21.0428 26056.4 -03496.4 -07.6426 26290.0
 10 11 2013  14 29  -21.0426 26056.0 -03495.8 -07.6413 26289.5
 10 11 2013  14 30  -21.0418 26055.5 -03495.2 -07.6402 26288.9
 10 11 2013  14 31  -21.0411 26055.1 -03494.8 -07.6394 26288.4
 10 11 2013  14 32  -21.0419 26055.5 -03494.8 -07.6395 26288.8
 10 11 2013  14 33  -21.0424 26055.4 -03494.7 -07.6393 26288.7
 10 11 2013  14 34  -21.0424 26054.7 -03494.3 -07.6386 26287.9
 10 11 2013  14 35  -21.0418 26053.3 -03493.7 -07.6377 26286.5
 10 11 2013  14 36  -21.0399 26053.0 -03493.6 -07.6376 26286.2
 10 11 2013  14 37  -21.0397 26055.3 -03494.7 -07.6393 26288.6
 10 11 2013  14 38  -21.0423 26057.9 -03495.8 -07.6408 26291.4
 10 11 2013  14 39  -21.0442 26057.7 -03495.4 -07.6400 26291.1
 10 11 2013  14 40  -21.0440 26055.6 -03494.2 -07.6380 26288.9
 10 11 2013  14 41  -21.0435 26054.1 -03493.5 -07.6370 26287.3
 10 11 2013  14 42  -21.0427 26053.4 -03493.4 -07.6371 26286.6
 10 11 2013  14 43  -21.0420 26052.9 -03493.5 -07.6373 26286.1
 10 11 2013  14 44  -21.0420 26052.8 -03493.7 -07.6378 26286.0
 10 11 2013  14 45  -21.0428 26052.7 -03493.9 -07.6383 26286.0
 10 11 2013  14 46  -21.0436 26052.7 -03494.1 -07.6387 26285.9
 10 11 2013  14 47  -21.0437 26052.4 -03494.0 -07.6386 26285.6
 10 11 2013  14 48  -21.0438 26052.0 -03494.0 -07.6387 26285.2
 10 11 2013  14 49  -21.0438 26051.7 -03494.1 -07.6389 26285.0
 10 11 2013  14 50  -21.0436 26051.5 -03494.1 -07.6390 26284.7
 10 11 2013  14 51  -21.0430 26051.2 -03494.1 -07.6391 26284.5
 10 11 2013  14 52  -21.0426 26050.7 -03494.0 -07.6390 26284.0
 10 11 2013  14 53  -21.0431 26050.6 -03494.0 -07.6392 26283.9
 10 11 2013  14 54  -21.0434 26051.0 -03494.3 -07.6396 26284.3
 10 11 2013  14 55  -21.0433 26051.2 -03494.4 -07.6398 26284.5
 10 11 2013  14 56  -21.0433 26051.2 -03494.4 -07.6397 26284.5
 10 11 2013  14 57  -21.0433 26051.3 -03494.3 -07.6396 26284.6
 10 11 2013  14 58  -21.0437 26051.5 -03494.4 -07.6396 26284.8
 10 11 2013  14 59  -21.0442 26051.9 -03494.4 -07.6396 26285.2
 10 11 2013  15 00  -21.0445 26052.4 -03494.5 -07.6396 26285.7
 10 11 2013  15 01  -21.0446 26052.3 -03494.3 -07.6392 26285.6
 10 11 2013  15 02  -21.0440 26052.1 -03494.0 -07.6388 26285.4
 10 11 2013  15 03  -21.0440 26052.0 -03493.9 -07.6384 26285.3
 10 11 2013  15 04  -21.0437 26051.7 -03493.6 -07.6378 26284.9
 10 11 2013  15 05  -21.0433 26050.7 -03493.1 -07.6371 26283.9
 10 11 2013  15 06  -21.0430 26050.4 -03493.0 -07.6370 26283.5
 10 11 2013  15 07  -21.0433 26050.3 -03493.0 -07.6371 26283.5
 10 11 2013  15 08  -21.0449 26050.9 -03493.3 -07.6375 26284.1
 10 11 2013  15 09  -21.0458 26051.3 -03493.3 -07.6374 26284.5
 10 11 2013  15 10  -21.0462 26051.0 -03493.0 -07.6368 26284.1
 10 11 2013  15 11  -21.0461 26050.7 -03492.6 -07.6361 26283.7
 10 11 2013  15 12  -21.0460 26050.8 -03492.6 -07.6360 26283.9
 10 11 2013  15 13  -21.0463 26051.1 -03492.7 -07.6361 26284.2
 10 11 2013  15 14  -21.0460 26050.4 -03492.3 -07.6355 26283.4
 10 11 2013  15 15  -21.0458 26049.8 -03491.9 -07.6349 26282.8
 10 11 2013  15 16  -21.0459 26049.4 -03491.8 -07.6348 26282.4
 10 11 2013  15 17  -21.0460 26048.8 -03491.7 -07.6346 26281.8
 10 11 2013  15 18  -21.0461 26049.0 -03491.8 -07.6348 26282.0
 10 11 2013  15 19  -21.0465 26049.5 -03492.0 -07.6351 26282.5
 10 11 2013  15 20  -21.0469 26049.7 -03492.0 -07.6351 26282.7
 10 11 2013  15 21  -21.0474 26050.3 -03492.1 -07.6351 26283.3
 10 11 2013  15 22  -21.0480 26050.4 -03492.0 -07.6349 26283.4
 10 11 2013  15 23  -21.0477 26050.8 -03491.9 -07.6346 26283.8
 10 11 2013  15 24  -21.0478 26051.0 -03491.8 -07.6343 26284.0
 10 11 2013  15 25  -21.0478 26051.1 -03491.6 -07.6339 26284.0
 10 11 2013  15 26  -21.0483 26050.5 -03491.2 -07.6331 26283.4
 10 11 2013  15 27  -21.0476 26049.5 -03490.7 -07.6323 26282.3
 10 11 2013  15 28  -21.0475 26049.3 -03490.6 -07.6322 26282.1
 10 11 2013  15 29  -21.0477 26050.0 -03490.9 -07.6326 26282.9
 10 11 2013  15 30  -21.0477 26050.8 -03491.1 -07.6329 26283.7
 10 11 2013  15 31  -21.0477 26051.3 -03491.1 -07.6327 26284.2
 10 11 2013  15 32  -21.0477 26051.4 -03491.0 -07.6325 26284.3
 10 11 2013  15 33  -21.0475 26051.2 -03490.8 -07.6320 26284.1
 10 11 2013  15 34  -21.0483 26051.3 -03490.7 -07.6317 26284.1
 10 11 2013  15 35  -21.0487 26050.9 -03490.3 -07.6311 26283.7
 10 11 2013  15 36  -21.0489 26050.9 -03490.1 -07.6307 26283.6
 10 11 2013  15 37  -21.0487 26050.6 -03489.9 -07.6302 26283.3
 10 11 2013  15 38  -21.0490 26050.1 -03489.5 -07.6296 26282.7
 10 11 2013  15 39  -21.0492 26049.6 -03489.2 -07.6291 26282.2
 10 11 2013  15 40  -21.0493 26049.5 -03489.2 -07.6291 26282.1
 10 11 2013  15 41  -21.0500 26049.7 -03489.2 -07.6290 26282.3
 10 11 2013  15 42  -21.0502 26049.5 -03489.0 -07.6287 26282.1
 10 11 2013  15 43  -21.0498 26048.9 -03488.7 -07.6282 26281.5
 10 11 2013  15 44  -21.0502 26048.5 -03488.6 -07.6280 26281.1
 10 11 2013  15 45  -21.0509 26048.7 -03488.7 -07.6283 26281.3
 10 11 2013  15 46  -21.0515 26049.1 -03488.8 -07.6284 26281.7
 10 11 2013  15 47  -21.0520 26049.4 -03488.8 -07.6283 26282.0
 10 11 2013  15 48  -21.0521 26049.4 -03488.7 -07.6280 26281.9
 10 11 2013  15 49  -21.0523 26049.3 -03488.6 -07.6278 26281.9
 10 11 2013  15 50  -21.0522 26049.2 -03488.5 -07.6276 26281.7
 10 11 2013  15 51  -21.0528 26049.5 -03488.5 -07.6276 26282.0
 10 11 2013  15 52  -21.0533 26049.8 -03488.5 -07.6276 26282.3
 10 11 2013  15 53  -21.0535 26049.7 -03488.4 -07.6274 26282.3
 10 11 2013  15 54  -21.0535 26049.9 -03488.3 -07.6271 26282.4
 10 11 2013  15 55  -21.0538 26050.1 -03488.3 -07.6270 26282.6
 10 11 2013  15 56  -21.0537 26049.9 -03488.2 -07.6267 26282.4
 10 11 2013  15 57  -21.0538 26049.9 -03488.1 -07.6266 26282.4
 10 11 2013  15 58  -21.0540 26049.8 -03488.1 -07.6265 26282.3
 10 11 2013  15 59  -21.0541 26050.0 -03488.1 -07.6266 26282.5
 10 11 2013  16 00  -21.0541 26050.1 -03488.1 -07.6264 26282.6
 10 11 2013  16 01  -21.0542 26050.2 -03488.0 -07.6262 26282.7
 10 11 2013  16 02  -21.0540 26050.0 -03487.8 -07.6258 26282.4
 10 11 2013  16 03  -21.0538 26050.2 -03487.7 -07.6257 26282.7
 10 11 2013  16 04  -21.0537 26050.5 -03487.7 -07.6255 26282.9
 10 11 2013  16 05  -21.0533 26050.5 -03487.6 -07.6253 26283.0
 10 11 2013  16 06  -21.0537 26050.7 -03487.5 -07.6251 26283.1
 10 11 2013  16 07  -21.0538 26050.7 -03487.5 -07.6251 26283.2
 10 11 2013  16 08  -21.0531 26050.3 -03487.3 -07.6247 26282.7
 10 11 2013  16 09  -21.0530 26049.9 -03487.1 -07.6244 26282.3
 10 11 2013  16 10  -21.0532 26049.9 -03487.1 -07.6244 26282.3
 10 11 2013  16 11  -21.0533 26050.1 -03487.1 -07.6244 26282.5
 10 11 2013  16 12  -21.0533 26050.5 -03487.2 -07.6246 26282.8
 10 11 2013  16 13  -21.0533 26050.2 -03487.0 -07.6241 26282.5
 10 11 2013  16 14  -21.0534 26050.1 -03486.9 -07.6239 26282.5
 10 11 2013  16 15  -21.0547 26050.8 -03487.1 -07.6241 26283.1
 10 11 2013  16 16  -21.0563 26051.2 -03487.0 -07.6238 26283.5
 10 11 2013  16 17  -21.0574 26051.2 -03486.6 -07.6230 26283.5
 10 11 2013  16 18  -21.0576 26050.7 -03486.1 -07.6219 26282.9
 10 11 2013  16 19  -21.0576 26050.4 -03485.7 -07.6212 26282.6
 10 11 2013  16 20  -21.0570 26050.1 -03485.4 -07.6208 26282.2
 10 11 2013  16 21  -21.0572 26049.9 -03485.3 -07.6204 26282.0
 10 11 2013  16 22  -21.0578 26049.9 -03485.1 -07.6202 26282.0
 10 11 2013  16 23  -21.0589 26049.9 -03485.1 -07.6200 26282.0
 10 11 2013  16 24  -21.0611 26049.4 -03484.8 -07.6195 26281.5
 10 11 2013  16 25  -21.0626 26049.2 -03484.6 -07.6191 26281.2
 10 11 2013  16 26  -21.0640 26049.3 -03484.5 -07.6189 26281.3
 10 11 2013  16 27  -21.0637 26048.3 -03483.8 -07.6178 26280.2
 10 11 2013  16 28  -21.0627 26046.6 -03483.1 -07.6167 26278.5
 10 11 2013  16 29  -21.0628 26045.6 -03482.8 -07.6165 26277.4
 10 11 2013  16 30  -21.0625 26045.0 -03482.8 -07.6166 26276.8
 10 11 2013  16 31  -21.0632 26044.4 -03482.9 -07.6168 26276.2
 10 11 2013  16 32  -21.0648 26044.0 -03482.9 -07.6171 26275.9
 10 11 2013  16 33  -21.0655 26043.4 -03482.8 -07.6170 26275.3
 10 11 2013  16 34  -21.0647 26042.4 -03482.5 -07.6166 26274.2
 10 11 2013  16 35  -21.0645 26041.4 -03482.4 -07.6166 26273.2
 10 11 2013  16 36  -21.0640 26041.0 -03482.5 -07.6171 26272.8
 10 11 2013  16 37  -21.0641 26040.7 -03482.8 -07.6177 26272.6
 10 11 2013  16 38  -21.0645 26040.6 -03483.0 -07.6182 26272.5
 10 11 2013  16 39  -21.0647 26040.7 -03483.2 -07.6187 26272.6
 10 11 2013  16 40  -21.0654 26040.8 -03483.4 -07.6190 26272.8
 10 11 2013  16 41  -21.0658 26041.1 -03483.6 -07.6194 26273.1
 10 11 2013  16 42  -21.0657 26041.4 -03483.7 -07.6195 26273.4
 10 11 2013  16 43  -21.0660 26042.1 -03484.0 -07.6199 26274.1
 10 11 2013  16 44  -21.0661 26042.6 -03484.1 -07.6200 26274.6
 10 11 2013  16 45  -21.0667 26043.2 -03484.2 -07.6200 26275.2
 10 11 2013  16 46  -21.0674 26043.8 -03484.2 -07.6198 26275.9
 10 11 2013  16 47  -21.0684 26044.6 -03484.2 -07.6197 26276.6
 10 11 2013  16 48  -21.0690 26044.7 -03484.0 -07.6192 26276.7
 10 11 2013  16 49  -21.0687 26044.2 -03483.5 -07.6182 26276.1
 10 11 2013  16 50  -21.0690 26044.3 -03483.3 -07.6178 26276.2
 10 11 2013  16 51  -21.0694 26044.3 -03483.0 -07.6173 26276.1
 10 11 2013  16 52  -21.0700 26044.0 -03482.7 -07.6166 26275.8
 10 11 2013  16 53  -21.0711 26044.1 -03482.6 -07.6163 26275.9
 10 11 2013  16 54  -21.0726 26044.2 -03482.3 -07.6157 26275.9
 10 11 2013  16 55  -21.0732 26044.0 -03482.0 -07.6150 26275.7
 10 11 2013  16 56  -21.0733 26043.6 -03481.6 -07.6143 26275.3
 10 11 2013  16 57  -21.0733 26042.8 -03481.1 -07.6136 26274.4
 10 11 2013  16 58  -21.0734 26041.3 -03480.6 -07.6127 26272.9
 10 11 2013  16 59  -21.0727 26039.7 -03480.1 -07.6123 26271.2
 10 11 2013  17 00  -21.0722 26038.5 -03480.0 -07.6123 26270.0
 10 11 2013  17 01  -21.0715 26037.4 -03480.0 -07.6126 26268.9
 10 11 2013  17 02  -21.0711 26036.7 -03480.1 -07.6131 26268.2
 10 11 2013  17 03  -21.0712 26036.1 -03480.3 -07.6136 26267.6
 10 11 2013  17 04  -21.0707 26035.5 -03480.4 -07.6140 26267.1
 10 11 2013  17 05  -21.0703 26035.1 -03480.5 -07.6145 26266.8
 10 11 2013  17 06  -21.0703 26035.0 -03480.8 -07.6150 26266.6
 10 11 2013  17 07  -21.0704 26034.6 -03480.8 -07.6153 26266.2
 10 11 2013  17 08  -21.0709 26034.3 -03480.9 -07.6155 26266.0
 10 11 2013  17 09  -21.0714 26034.3 -03481.0 -07.6158 26266.0
 10 11 2013  17 10  -21.0718 26034.0 -03481.0 -07.6158 26265.7
 10 11 2013  17 11  -21.0721 26033.6 -03480.9 -07.6156 26265.3
 10 11 2013  17 12  -21.0732 26033.8 -03481.0 -07.6158 26265.5
 10 11 2013  17 13  -21.0737 26033.4 -03480.7 -07.6154 26265.1
 10 11 2013  17 14  -21.0745 26033.0 -03480.6 -07.6152 26264.6
 10 11 2013  17 15  -21.0742 26032.5 -03480.4 -07.6148 26264.2
 10 11 2013  17 16  -21.0743 26032.2 -03480.3 -07.6148 26263.8
 10 11 2013  17 17  -21.0748 26031.8 -03480.3 -07.6148 26263.4
 10 11 2013  17 18  -21.0744 26031.0 -03479.9 -07.6144 26262.5
 10 11 2013  17 19  -21.0746 26030.3 -03479.9 -07.6144 26261.9
 10 11 2013  17 20  -21.0743 26030.0 -03479.9 -07.6145 26261.5
 10 11 2013  17 21  -21.0746 26029.8 -03480.1 -07.6150 26261.4
 10 11 2013  17 22  -21.0751 26029.5 -03480.1 -07.6152 26261.1
 10 11 2013  17 23  -21.0756 26029.3 -03480.1 -07.6153 26260.9
 10 11 2013  17 24  -21.0763 26029.0 -03480.2 -07.6154 26260.7
 10 11 2013  17 25  -21.0769 26028.3 -03479.9 -07.6152 26259.9
 10 11 2013  17 26  -21.0770 26027.4 -03479.8 -07.6150 26259.0
 10 11 2013  17 27  -21.0775 26026.6 -03479.6 -07.6150 26258.2
 10 11 2013  17 28  -21.0766 26025.8 -03479.5 -07.6150 26257.3
 10 11 2013  17 29  -21.0758 26025.4 -03479.6 -07.6153 26257.0
 10 11 2013  17 30  -21.0754 26025.8 -03480.2 -07.6164 26257.5
 10 11 2013  17 31  -21.0761 26026.4 -03480.7 -07.6175 26258.1
 10 11 2013  17 32  -21.0760 26026.3 -03480.8 -07.6177 26258.0
 10 11 2013  17 33  -21.0755 26025.7 -03480.6 -07.6174 26257.4
 10 11 2013  17 34  -21.0753 26025.4 -03480.7 -07.6177 26257.1
 10 11 2013  17 35  -21.0751 26025.2 -03480.8 -07.6179 26257.0
 10 11 2013  17 36  -21.0752 26025.1 -03480.9 -07.6181 26256.9
 10 11 2013  17 37  -21.0751 26025.0 -03480.9 -07.6183 26256.8
 10 11 2013  17 38  -21.0746 26025.1 -03481.0 -07.6185 26256.8
 10 11 2013  17 39  -21.0748 26025.5 -03481.2 -07.6188 26257.3
 10 11 2013  17 40  -21.0744 26025.8 -03481.4 -07.6191 26257.7
 10 11 2013  17 41  -21.0742 26026.1 -03481.6 -07.6194 26257.9
 10 11 2013  17 42  -21.0738 26026.2 -03481.6 -07.6193 26258.0
 10 11 2013  17 43  -21.0733 26025.9 -03481.4 -07.6191 26257.8
 10 11 2013  17 44  -21.0746 26025.5 -03481.3 -07.6190 26257.3
 10 11 2013  17 45  -21.0755 26025.2 -03481.2 -07.6188 26257.0
 10 11 2013  17 46  -21.0760 26024.0 -03480.6 -07.6179 26255.7
 10 11 2013  17 47  -21.0761 26023.2 -03480.2 -07.6172 26254.9
 10 11 2013  17 48  -21.0761 26023.0 -03480.1 -07.6170 26254.7
 10 11 2013  17 49  -21.0755 26023.2 -03480.1 -07.6171 26254.8
 10 11 2013  17 50  -21.0744 26023.0 -03480.0 -07.6169 26254.7
 10 11 2013  17 51  -21.0738 26023.3 -03480.3 -07.6174 26255.0
 10 11 2013  17 52  -21.0732 26023.9 -03480.7 -07.6180 26255.6
 10 11 2013  17 53  -21.0740 26023.7 -03480.8 -07.6183 26255.5
 10 11 2013  17 54  -21.0740 26022.9 -03480.5 -07.6179 26254.6
 10 11 2013  17 55  -21.0738 26021.6 -03480.0 -07.6173 26253.2
 10 11 2013  17 56  -21.0733 26020.1 -03479.6 -07.6169 26251.7
 10 11 2013  17 57  -21.0736 26019.3 -03479.6 -07.6171 26250.9
 10 11 2013  17 58  -21.0729 26019.0 -03479.8 -07.6176 26250.6
 10 11 2013  17 59  -21.0717 26018.6 -03479.9 -07.6178 26250.3
 10 11 2013  18 00  -21.0714 26018.4 -03480.1 -07.6184 26250.1
 10 11 2013  18 01  -21.0709 26018.4 -03480.4 -07.6190 26250.2
 10 11 2013  18 02  -21.0706 26018.6 -03480.7 -07.6197 26250.4
 10 11 2013  18 03  -21.0710 26018.8 -03481.1 -07.6204 26250.7
 10 11 2013  18 04  -21.0707 26018.7 -03481.2 -07.6207 26250.5
 10 11 2013  18 05  -21.0704 26018.4 -03481.3 -07.6209 26250.3
 10 11 2013  18 06  -21.0704 26018.3 -03481.5 -07.6214 26250.2
 10 11 2013  18 07  -21.0699 26018.4 -03481.7 -07.6218 26250.3
 10 11 2013  18 08  -21.0698 26018.6 -03482.0 -07.6224 26250.6
 10 11 2013  18 09  -21.0697 26018.5 -03482.1 -07.6227 26250.5
 10 11 2013  18 10  -21.0693 26018.1 -03482.1 -07.6227 26250.1
 10 11 2013  18 11  -21.0688 26017.7 -03482.0 -07.6226 26249.7
 10 11 2013  18 12  -21.0685 26017.6 -03482.0 -07.6228 26249.6
 10 11 2013  18 13  -21.0685 26017.5 -03482.2 -07.6232 26249.5
 10 11 2013  18 14  -21.0685 26017.7 -03482.4 -07.6235 26249.7
 10 11 2013  18 15  -21.0687 26017.7 -03482.5 -07.6237 26249.8
 10 11 2013  18 16  -21.0686 26017.7 -03482.6 -07.6240 26249.7
 10 11 2013  18 17  -21.0685 26017.7 -03482.8 -07.6243 26249.8
 10 11 2013  18 18  -21.0686 26018.1 -03483.1 -07.6250 26250.2
 10 11 2013  18 19  -21.0692 26018.1 -03483.4 -07.6255 26250.3
 10 11 2013  18 20  -21.0698 26018.3 -03483.6 -07.6260 26250.5
 10 11 2013  18 21  -21.0705 26018.6 -03483.9 -07.6265 26250.8
 10 11 2013  18 22  -21.0709 26018.7 -03484.1 -07.6269 26251.0
 10 11 2013  18 23  -21.0711 26018.7 -03484.3 -07.6273 26251.0
 10 11 2013  18 24  -21.0716 26018.9 -03484.5 -07.6278 26251.2
 10 11 2013  18 25  -21.0719 26018.8 -03484.6 -07.6281 26251.1
 10 11 2013  18 26  -21.0722 26018.7 -03484.7 -07.6283 26251.0
 10 11 2013  18 27  -21.0723 26018.5 -03484.8 -07.6285 26250.8
 10 11 2013  18 28  -21.0724 26018.8 -03485.1 -07.6291 26251.2
 10 11 2013  18 29  -21.0728 26018.9 -03485.4 -07.6297 26251.3
 10 11 2013  18 30  -21.0731 26018.8 -03485.6 -07.6301 26251.3
 10 11 2013  18 31  -21.0730 26018.8 -03485.7 -07.6304 26251.3
 10 11 2013  18 32  -21.0726 26018.3 -03485.6 -07.6303 26250.8
 10 11 2013  18 33  -21.0721 26017.1 -03485.3 -07.6299 26249.5
 10 11 2013  18 34  -21.0718 26017.0 -03485.3 -07.6301 26249.5
 10 11 2013  18 35  -21.0717 26016.8 -03485.5 -07.6304 26249.3
 10 11 2013  18 36  -21.0713 26017.0 -03485.7 -07.6309 26249.5
 10 11 2013  18 37  -21.0712 26017.0 -03485.9 -07.6312 26249.5
 10 11 2013  18 38  -21.0709 26017.1 -03486.1 -07.6316 26249.6
 10 11 2013  18 39  -21.0709 26017.0 -03486.1 -07.6317 26249.5
 10 11 2013  18 40  -21.0708 26017.0 -03486.2 -07.6320 26249.6
 10 11 2013  18 41  -21.0708 26017.2 -03486.4 -07.6323 26249.8
 10 11 2013  18 42  -21.0703 26017.3 -03486.5 -07.6326 26249.8
 10 11 2013  18 43  -21.0695 26017.2 -03486.5 -07.6327 26249.7
 10 11 2013  18 44  -21.0695 26017.1 -03486.7 -07.6329 26249.7
 10 11 2013  18 45  -21.0693 26017.0 -03486.8 -07.6333 26249.6
 10 11 2013  18 46  -21.0688 26017.1 -03487.0 -07.6338 26249.8
 10 11 2013  18 47  -21.0684 26017.7 -03487.4 -07.6344 26250.4
 10 11 2013  18 48  -21.0684 26018.1 -03487.7 -07.6350 26250.8
 10 11 2013  18 49  -21.0680 26018.8 -03488.1 -07.6355 26251.5
 10 11 2013  18 50  -21.0681 26019.1 -03488.3 -07.6359 26251.9
 10 11 2013  18 51  -21.0683 26019.8 -03488.6 -07.6364 26252.6
 10 11 2013  18 52  -21.0685 26019.7 -03488.6 -07.6363 26252.5
 10 11 2013  18 53  -21.0681 26019.4 -03488.4 -07.6361 26252.2
 10 11 2013  18 54  -21.0679 26018.9 -03488.2 -07.6358 26251.7
 10 11 2013  18 55  -21.0683 26018.5 -03488.2 -07.6358 26251.3
 10 11 2013  18 56  -21.0687 26018.2 -03488.2 -07.6359 26251.0
 10 11 2013  18 57  -21.0689 26018.5 -03488.4 -07.6363 26251.3
 10 11 2013  18 58  -21.0686 26018.4 -03488.5 -07.6365 26251.2
 10 11 2013  18 59  -21.0682 26018.7 -03488.7 -07.6369 26251.6
 10 11 2013  19 00  -21.0678 26019.0 -03489.0 -07.6374 26251.9
 10 11 2013  19 01  -21.0674 26019.2 -03489.2 -07.6378 26252.1
 10 11 2013  19 02  -21.0668 26019.4 -03489.3 -07.6381 26252.3
 10 11 2013  19 03  -21.0660 26019.3 -03489.4 -07.6382 26252.2
 10 11 2013  19 04  -21.0652 26019.2 -03489.4 -07.6384 26252.2
 10 11 2013  19 05  -21.0649 26019.0 -03489.5 -07.6385 26252.0
 10 11 2013  19 06  -21.0645 26018.8 -03489.5 -07.6386 26251.8
 10 11 2013  19 07  -21.0641 26018.6 -03489.5 -07.6387 26251.5
 10 11 2013  19 08  -21.0637 26018.5 -03489.6 -07.6389 26251.4
 10 11 2013  19 09  -21.0632 26018.4 -03489.6 -07.6390 26251.4
 10 11 2013  19 10  -21.0630 26018.5 -03489.8 -07.6394 26251.5
 10 11 2013  19 11  -21.0625 26018.4 -03489.9 -07.6395 26251.4
 10 11 2013  19 12  -21.0621 26018.4 -03490.0 -07.6398 26251.4
 10 11 2013  19 13  -21.0616 26018.3 -03490.1 -07.6400 26251.3
 10 11 2013  19 14  -21.0609 26018.2 -03490.1 -07.6402 26251.2
 10 11 2013  19 15  -21.0600 26017.8 -03490.1 -07.6402 26250.8
 10 11 2013  19 16  -21.0592 26017.8 -03490.3 -07.6406 26250.8
 10 11 2013  19 17  -21.0585 26017.8 -03490.5 -07.6410 26250.8
 10 11 2013  19 18  -21.0578 26017.7 -03490.7 -07.6414 26250.9
 10 11 2013  19 19  -21.0571 26017.8 -03490.9 -07.6418 26251.0
 10 11 2013  19 20  -21.0564 26017.9 -03491.1 -07.6423 26251.1
 10 11 2013  19 21  -21.0557 26017.7 -03491.1 -07.6424 26250.9
 10 11 2013  19 22  -21.0546 26017.3 -03491.0 -07.6424 26250.4
 10 11 2013  19 23  -21.0538 26016.8 -03490.9 -07.6423 26250.0
 10 11 2013  19 24  -21.0533 26017.0 -03491.1 -07.6426 26250.1
 10 11 2013  19 25  -21.0529 26017.3 -03491.4 -07.6432 26250.6
 10 11 2013  19 26  -21.0523 26017.4 -03491.7 -07.6437 26250.7
 10 11 2013  19 27  -21.0522 26017.4 -03491.8 -07.6440 26250.6
 10 11 2013  19 28  -21.0520 26017.1 -03491.8 -07.6441 26250.4
 10 11 2013  19 29  -21.0518 26016.9 -03491.9 -07.6442 26250.2
 10 11 2013  19 30  -21.0517 26016.7 -03491.9 -07.6445 26250.0
 10 11 2013  19 31  -21.0515 26016.4 -03492.0 -07.6447 26249.7
 10 11 2013  19 32  -21.0515 26016.0 -03492.0 -07.6448 26249.3
 10 11 2013  19 33  -21.0516 26015.6 -03492.0 -07.6449 26248.9
 10 11 2013  19 34  -21.0512 26015.2 -03491.9 -07.6449 26248.5
 10 11 2013  19 35  -21.0506 26014.8 -03491.9 -07.6449 26248.1
 10 11 2013  19 36  -21.0501 26014.7 -03492.1 -07.6454 26248.1
 10 11 2013  19 37  -21.0496 26014.5 -03492.2 -07.6457 26247.9
 10 11 2013  19 38  -21.0489 26014.2 -03492.3 -07.6460 26247.6
 10 11 2013  19 39  -21.0485 26014.3 -03492.5 -07.6465 26247.7
 10 11 2013  19 40  -21.0480 26014.4 -03492.9 -07.6472 26247.8
 10 11 2013  19 41  -21.0475 26014.5 -03493.2 -07.6478 26247.9
 10 11 2013  19 42  -21.0471 26014.5 -03493.4 -07.6483 26248.0
 10 11 2013  19 43  -21.0469 26014.2 -03493.5 -07.6486 26247.8
 10 11 2013  19 44  -21.0468 26013.6 -03493.4 -07.6485 26247.1
 10 11 2013  19 45  -21.0469 26013.5 -03493.5 -07.6488 26247.1
 10 11 2013  19 46  -21.0467 26012.7 -03493.3 -07.6485 26246.2
 10 11 2013  19 47  -21.0457 26012.0 -03493.1 -07.6483 26245.5
 10 11 2013  19 48  -21.0456 26012.2 -03493.3 -07.6488 26245.7
 10 11 2013  19 49  -21.0455 26012.1 -03493.6 -07.6494 26245.7
 10 11 2013  19 50  -21.0452 26011.4 -03493.4 -07.6493 26245.0
 10 11 2013  19 51  -21.0451 26010.9 -03493.3 -07.6491 26244.4
 10 11 2013  19 52  -21.0448 26010.2 -03493.1 -07.6490 26243.7
 10 11 2013  19 53  -21.0449 26010.2 -03493.3 -07.6494 26243.8
 10 11 2013  19 54  -21.0449 26010.1 -03493.5 -07.6499 26243.6
 10 11 2013  19 55  -21.0445 26010.1 -03493.8 -07.6504 26243.7
 10 11 2013  19 56  -21.0441 26010.2 -03494.1 -07.6510 26243.8
 10 11 2013  19 57  -21.0438 26010.2 -03494.4 -07.6516 26243.9
 10 11 2013  19 58  -21.0431 26009.7 -03494.4 -07.6518 26243.4
 10 11 2013  19 59  -21.0427 26009.4 -03494.4 -07.6520 26243.1
 10 11 2013  20 00  -21.0424 26009.3 -03494.6 -07.6524 26243.0
 10 11 2013  20 01  -21.0421 26009.8 -03495.1 -07.6533 26243.6
 10 11 2013  20 02  -21.0421 26009.8 -03495.4 -07.6540 26243.6
 10 11 2013  20 03  -21.0419 26009.4 -03495.4 -07.6541 26243.2
 10 11 2013  20 04  -21.0418 26009.0 -03495.4 -07.6542 26242.8
 10 11 2013  20 05  -21.0418 26008.9 -03495.5 -07.6545 26242.8
 10 11 2013  20 06  -21.0418 26008.7 -03495.7 -07.6549 26242.6
 10 11 2013  20 07  -21.0416 26008.5 -03495.8 -07.6551 26242.4
 10 11 2013  20 08  -21.0414 26008.2 -03495.8 -07.6553 26242.1
 10 11 2013  20 09  -21.0414 26008.1 -03496.0 -07.6557 26242.0
 10 11 2013  20 10  -21.0414 26007.5 -03495.9 -07.6558 26241.4
 10 11 2013  20 11  -21.0414 26007.0 -03495.9 -07.6559 26240.9
 10 11 2013  20 12  -21.0416 26006.5 -03495.9 -07.6559 26240.4
 10 11 2013  20 13  -21.0418 26006.0 -03495.8 -07.6560 26239.9
 10 11 2013  20 14  -21.0418 26005.7 -03495.9 -07.6562 26239.7
 10 11 2013  20 15  -21.0419 26005.3 -03495.9 -07.6563 26239.3
 10 11 2013  20 16  -21.0421 26004.7 -03495.8 -07.6563 26238.6
 10 11 2013  20 17  -21.0421 26004.3 -03495.8 -07.6565 26238.2
 10 11 2013  20 18  -21.0424 26003.5 -03495.7 -07.6564 26237.4
 10 11 2013  20 19  -21.0425 26002.8 -03495.6 -07.6564 26236.8
 10 11 2013  20 20  -21.0426 26002.4 -03495.6 -07.6566 26236.4
 10 11 2013  20 21  -21.0424 26002.1 -03495.6 -07.6567 26236.0
 10 11 2013  20 22  -21.0424 26001.7 -03495.6 -07.6568 26235.7
 10 11 2013  20 23  -21.0417 26001.1 -03495.6 -07.6569 26235.0
 10 11 2013  20 24  -21.0412 26000.7 -03495.5 -07.6569 26234.6
 10 11 2013  20 25  -21.0409 26000.5 -03495.6 -07.6571 26234.5
 10 11 2013  20 26  -21.0410 26000.5 -03495.8 -07.6577 26234.4
 10 11 2013  20 27  -21.0409 26000.3 -03496.0 -07.6581 26234.3
 10 11 2013  20 28  -21.0409 26000.1 -03496.1 -07.6584 26234.1
 10 11 2013  20 29  -21.0404 25999.8 -03496.2 -07.6586 26233.8
 10 11 2013  20 30  -21.0403 25999.6 -03496.3 -07.6589 26233.6
 10 11 2013  20 31  -21.0403 25999.2 -03496.3 -07.6591 26233.2
 10 11 2013  20 32  -21.0405 25999.0 -03496.5 -07.6594 26233.1
 10 11 2013  20 33  -21.0410 25998.9 -03496.6 -07.6597 26233.0
 10 11 2013  20 34  -21.0414 25998.9 -03496.8 -07.6601 26233.0
 10 11 2013  20 35  -21.0418 25998.7 -03496.9 -07.6603 26232.8
 10 11 2013  20 36  -21.0417 25998.8 -03497.0 -07.6607 26232.9
 10 11 2013  20 37  -21.0421 25998.9 -03497.2 -07.6611 26233.1
 10 11 2013  20 38  -21.0426 25999.1 -03497.5 -07.6616 26233.3
 10 11 2013  20 39  -21.0432 25999.6 -03497.8 -07.6622 26233.8
 10 11 2013  20 40  -21.0437 25999.7 -03498.0 -07.6626 26233.9
 10 11 2013  20 41  -21.0440 25999.7 -03498.1 -07.6628 26233.9
 10 11 2013  20 42  -21.0443 25999.8 -03498.3 -07.6631 26234.1
 10 11 2013  20 43  -21.0449 26000.0 -03498.5 -07.6634 26234.3
 10 11 2013  20 44  -21.0452 26000.1 -03498.5 -07.6636 26234.4
 10 11 2013  20 45  -21.0453 26000.2 -03498.6 -07.6638 26234.5
 10 11 2013  20 46  -21.0454 26000.1 -03498.7 -07.6638 26234.4
 10 11 2013  20 47  -21.0455 26000.3 -03498.8 -07.6641 26234.6
 10 11 2013  20 48  -21.0456 26000.1 -03498.8 -07.6642 26234.5
 10 11 2013  20 49  -21.0454 25999.7 -03498.7 -07.6640 26234.0
 10 11 2013  20 50  -21.0454 25999.2 -03498.5 -07.6638 26233.5
 10 11 2013  20 51  -21.0453 25998.8 -03498.4 -07.6636 26233.1
 10 11 2013  20 52  -21.0453 25998.5 -03498.3 -07.6636 26232.8
 10 11 2013  20 53  -21.0449 25998.5 -03498.4 -07.6638 26232.9
 10 11 2013  20 54  -21.0444 25998.3 -03498.4 -07.6638 26232.6
 10 11 2013  20 55  -21.0444 25998.2 -03498.5 -07.6641 26232.5
 10 11 2013  20 56  -21.0445 25998.0 -03498.6 -07.6643 26232.4
 10 11 2013  20 57  -21.0446 25997.7 -03498.6 -07.6644 26232.1
 10 11 2013  20 58  -21.0446 25997.3 -03498.5 -07.6644 26231.6
 10 11 2013  20 59  -21.0446 25996.9 -03498.5 -07.6645 26231.3
 10 11 2013  21 00  -21.0451 25996.5 -03498.5 -07.6645 26230.8
 10 11 2013  21 01  -21.0457 25996.0 -03498.4 -07.6645 26230.3
 10 11 2013  21 02  -21.0464 25995.6 -03498.4 -07.6646 26230.0
 10 11 2013  21 03  -21.0474 25995.2 -03498.3 -07.6646 26229.5
 10 11 2013  21 04  -21.0483 25994.6 -03498.2 -07.6644 26228.9
 10 11 2013  21 05  -21.0493 25994.2 -03498.1 -07.6644 26228.5
 10 11 2013  21 06  -21.0501 25994.0 -03498.1 -07.6645 26228.3
 10 11 2013  21 07  -21.0508 25993.8 -03498.2 -07.6646 26228.2
 10 11 2013  21 08  -21.0515 25993.7 -03498.2 -07.6647 26228.1
 10 11 2013  21 09  -21.0523 25993.8 -03498.4 -07.6650 26228.2
 10 11 2013  21 10  -21.0529 25994.0 -03498.6 -07.6654 26228.4
 10 11 2013  21 11  -21.0534 25994.2 -03498.8 -07.6659 26228.6
 10 11 2013  21 12  -21.0539 25994.0 -03498.8 -07.6660 26228.4
 10 11 2013  21 13  -21.0541 25993.8 -03498.8 -07.6661 26228.2
 10 11 2013  21 14  -21.0543 25993.7 -03498.8 -07.6661 26228.1
 10 11 2013  21 15  -21.0546 25993.6 -03498.9 -07.6663 26228.0
 10 11 2013  21 16  -21.0549 25993.3 -03499.0 -07.6665 26227.8
 10 11 2013  21 17  -21.0552 25993.4 -03499.1 -07.6668 26227.8
 10 11 2013  21 18  -21.0555 25993.5 -03499.3 -07.6672 26228.0
 10 11 2013  21 19  -21.0555 25993.6 -03499.5 -07.6676 26228.1
 10 11 2013  21 20  -21.0553 25993.5 -03499.6 -07.6679 26228.1
 10 11 2013  21 21  -21.0551 25993.7 -03499.8 -07.6683 26228.3
 10 11 2013  21 22  -21.0549 25993.7 -03500.0 -07.6685 26228.3
 10 11 2013  21 23  -21.0546 25993.5 -03500.0 -07.6686 26228.0
 10 11 2013  21 24  -21.0544 25993.1 -03500.0 -07.6687 26227.7
 10 11 2013  21 25  -21.0542 25993.0 -03500.0 -07.6689 26227.6
 10 11 2013  21 26  -21.0542 25993.1 -03500.2 -07.6693 26227.7
 10 11 2013  21 27  -21.0544 25993.3 -03500.5 -07.6698 26227.9
 10 11 2013  21 28  -21.0547 25993.5 -03500.7 -07.6703 26228.1
 10 11 2013  21 29  -21.0549 25993.4 -03500.8 -07.6705 26228.1
 10 11 2013  21 30  -21.0552 25993.4 -03500.9 -07.6707 26228.0
 10 11 2013  21 31  -21.0555 25993.5 -03501.0 -07.6709 26228.2
 10 11 2013  21 32  -21.0555 25993.7 -03501.2 -07.6712 26228.4
 10 11 2013  21 33  -21.0556 25993.5 -03501.2 -07.6713 26228.2
 10 11 2013  21 34  -21.0557 25993.4 -03501.2 -07.6713 26228.1
 10 11 2013  21 35  -21.0559 25993.4 -03501.3 -07.6715 26228.1
 10 11 2013  21 36  -21.0561 25993.3 -03501.3 -07.6715 26228.1
 10 11 2013  21 37  -21.0561 25993.2 -03501.3 -07.6715 26227.9
 10 11 2013  21 38  -21.0558 25993.0 -03501.2 -07.6714 26227.7
 10 11 2013  21 39  -21.0559 25992.8 -03501.2 -07.6714 26227.5
 10 11 2013  21 40  -21.0562 25992.3 -03501.1 -07.6713 26227.1
 10 11 2013  21 41  -21.0567 25991.7 -03500.8 -07.6709 26226.4
 10 11 2013  21 42  -21.0573 25991.6 -03500.8 -07.6710 26226.3
 10 11 2013  21 43  -21.0580 25991.4 -03500.8 -07.6711 26226.2
 10 11 2013  21 44  -21.0587 25991.2 -03500.8 -07.6711 26225.9
 10 11 2013  21 45  -21.0592 25990.8 -03500.7 -07.6709 26225.5
 10 11 2013  21 46  -21.0596 25990.6 -03500.6 -07.6709 26225.3
 10 11 2013  21 47  -21.0598 25990.3 -03500.5 -07.6708 26225.0
 10 11 2013  21 48  -21.0600 25989.6 -03500.2 -07.6703 26224.3
 10 11 2013  21 49  -21.0600 25988.9 -03500.0 -07.6699 26223.6
 10 11 2013  21 50  -21.0602 25988.5 -03499.8 -07.6697 26223.1
 10 11 2013  21 51  -21.0603 25988.4 -03499.8 -07.6698 26223.0
 10 11 2013  21 52  -21.0603 25988.3 -03499.9 -07.6700 26222.9
 10 11 2013  21 53  -21.0604 25988.0 -03499.9 -07.6701 26222.7
 10 11 2013  21 54  -21.0605 25988.0 -03499.9 -07.6702 26222.6
 10 11 2013  21 55  -21.0608 25988.0 -03500.1 -07.6704 26222.7
 10 11 2013  21 56  -21.0609 25988.2 -03500.2 -07.6708 26222.8
 10 11 2013  21 57  -21.0611 25988.2 -03500.4 -07.6711 26222.9
 10 11 2013  21 58  -21.0611 25988.3 -03500.5 -07.6713 26223.0
 10 11 2013  21 59  -21.0609 25988.4 -03500.6 -07.6715 26223.1
 10 11 2013  22 00  -21.0608 25988.5 -03500.7 -07.6716 26223.2
 10 11 2013  22 01  -21.0607 25988.7 -03500.8 -07.6719 26223.5
 10 11 2013  22 02  -21.0605 25988.8 -03500.9 -07.6721 26223.5
 10 11 2013  22 03  -21.0605 25988.9 -03501.1 -07.6723 26223.7
 10 11 2013  22 04  -21.0602 25989.0 -03501.1 -07.6725 26223.8
 10 11 2013  22 05  -21.0597 25989.1 -03501.2 -07.6726 26223.9
 10 11 2013  22 06  -21.0591 25989.1 -03501.2 -07.6726 26223.9
 10 11 2013  22 07  -21.0584 25988.9 -03501.1 -07.6725 26223.6
 10 11 2013  22 08  -21.0576 25988.8 -03501.1 -07.6724 26223.5
 10 11 2013  22 09  -21.0568 25988.5 -03501.0 -07.6724 26223.2
 10 11 2013  22 10  -21.0559 25988.5 -03501.1 -07.6725 26223.2
 10 11 2013  22 11  -21.0550 25988.5 -03501.1 -07.6726 26223.3
 10 11 2013  22 12  -21.0545 25988.7 -03501.4 -07.6730 26223.5
 10 11 2013  22 13  -21.0542 25988.8 -03501.5 -07.6734 26223.6
 10 11 2013  22 14  -21.0539 25988.9 -03501.7 -07.6737 26223.8
 10 11 2013  22 15  -21.0535 25989.3 -03502.0 -07.6742 26224.1
 10 11 2013  22 16  -21.0529 25989.7 -03502.2 -07.6746 26224.6
 10 11 2013  22 17  -21.0523 25990.0 -03502.4 -07.6750 26224.9
 10 11 2013  22 18  -21.0520 25990.0 -03502.6 -07.6753 26225.0
 10 11 2013  22 19  -21.0515 25990.2 -03502.7 -07.6754 26225.2
 10 11 2013  22 20  -21.0510 25990.5 -03502.9 -07.6758 26225.5
 10 11 2013  22 21  -21.0504 25990.6 -03502.9 -07.6759 26225.6
 10 11 2013  22 22  -21.0494 25991.1 -03503.2 -07.6762 26226.2
 10 11 2013  22 23  -21.0487 25991.9 -03503.6 -07.6770 26227.0
 10 11 2013  22 24  -21.0482 25992.3 -03503.9 -07.6775 26227.4
 10 11 2013  22 25  -21.0481 25992.6 -03504.1 -07.6779 26227.8
 10 11 2013  22 26  -21.0483 25992.8 -03504.2 -07.6780 26227.9
 10 11 2013  22 27  -21.0487 25992.7 -03504.2 -07.6780 26227.9
 10 11 2013  22 28  -21.0491 25992.7 -03504.2 -07.6779 26227.8
 10 11 2013  22 29  -21.0496 25992.7 -03504.1 -07.6779 26227.8
 10 11 2013  22 30  -21.0496 25992.8 -03504.1 -07.6777 26227.9
 10 11 2013  22 31  -21.0493 25992.5 -03503.9 -07.6774 26227.6
 10 11 2013  22 32  -21.0492 25992.3 -03503.8 -07.6772 26227.4
 10 11 2013  22 33  -21.0489 25991.9 -03503.6 -07.6768 26227.0
 10 11 2013  22 34  -21.0488 25991.6 -03503.4 -07.6765 26226.6
 10 11 2013  22 35  -21.0485 25991.5 -03503.3 -07.6765 26226.6
 10 11 2013  22 36  -21.0480 25991.4 -03503.3 -07.6764 26226.4
 10 11 2013  22 37  -21.0475 25991.3 -03503.3 -07.6764 26226.4
 10 11 2013  22 38  -21.0468 25991.4 -03503.4 -07.6766 26226.5
 10 11 2013  22 39  -21.0462 25991.6 -03503.6 -07.6769 26226.7
 10 11 2013  22 40  -21.0455 25991.4 -03503.5 -07.6770 26226.5
 10 11 2013  22 41  -21.0449 25991.6 -03503.7 -07.6772 26226.6
 10 11 2013  22 42  -21.0445 25991.7 -03503.8 -07.6775 26226.8
 10 11 2013  22 43  -21.0441 25991.6 -03503.9 -07.6777 26226.7
 10 11 2013  22 44  -21.0437 25991.6 -03503.9 -07.6777 26226.7
 10 11 2013  22 45  -21.0436 25991.8 -03504.1 -07.6780 26226.9
 10 11 2013  22 46  -21.0432 25992.0 -03504.3 -07.6784 26227.2
 10 11 2013  22 47  -21.0429 25992.2 -03504.4 -07.6786 26227.3
 10 11 2013  22 48  -21.0424 25992.5 -03504.6 -07.6789 26227.7
 10 11 2013  22 49  -21.0418 25992.8 -03504.8 -07.6792 26228.0
 10 11 2013  22 50  -21.0413 25993.2 -03505.0 -07.6796 26228.4
 10 11 2013  22 51  -21.0404 25993.8 -03505.4 -07.6802 26229.0
 10 11 2013  22 52  -21.0397 25994.1 -03505.6 -07.6806 26229.4
 10 11 2013  22 53  -21.0387 25994.6 -03505.8 -07.6810 26230.0
 10 11 2013  22 54  -21.0377 25995.0 -03506.1 -07.6815 26230.4
 10 11 2013  22 55  -21.0368 25995.0 -03506.1 -07.6815 26230.3
 10 11 2013  22 56  -21.0362 25994.9 -03506.1 -07.6815 26230.2
 10 11 2013  22 57  -21.0360 25994.6 -03506.1 -07.6815 26230.0
 10 11 2013  22 58  -21.0357 25994.6 -03506.0 -07.6813 26229.9
 10 11 2013  22 59  -21.0355 25994.5 -03506.0 -07.6813 26229.8
 10 11 2013  23 00  -21.0352 25994.6 -03506.1 -07.6815 26230.0
 10 11 2013  23 01  -21.0350 25994.4 -03506.0 -07.6815 26229.8
 10 11 2013  23 02  -21.0346 25994.1 -03505.9 -07.6813 26229.5
 10 11 2013  23 03  -21.0345 25993.6 -03505.7 -07.6810 26228.9
 10 11 2013  23 04  -21.0345 25993.0 -03505.4 -07.6805 26228.3
 10 11 2013  23 05  -21.0346 25992.5 -03505.2 -07.6802 26227.8
 10 11 2013  23 06  -21.0347 25992.0 -03505.0 -07.6800 26227.3
 10 11 2013  23 07  -21.0346 25991.7 -03504.9 -07.6798 26226.9
 10 11 2013  23 08  -21.0347 25991.4 -03504.9 -07.6798 26226.7
 10 11 2013  23 09  -21.0346 25991.4 -03504.9 -07.6798 26226.6
 10 11 2013  23 10  -21.0343 25991.2 -03504.9 -07.6799 26226.5
 10 11 2013  23 11  -21.0339 25990.9 -03504.8 -07.6799 26226.2
 10 11 2013  23 12  -21.0340 25990.6 -03504.7 -07.6798 26225.9
 10 11 2013  23 13  -21.0340 25990.3 -03504.7 -07.6799 26225.6
 10 11 2013  23 14  -21.0340 25990.1 -03504.6 -07.6797 26225.3
 10 11 2013  23 15  -21.0341 25989.8 -03504.6 -07.6797 26225.0
 10 11 2013  23 16  -21.0342 25989.7 -03504.6 -07.6798 26225.0
 10 11 2013  23 17  -21.0343 25990.0 -03504.8 -07.6801 26225.2
 10 11 2013  23 18  -21.0341 25990.3 -03505.0 -07.6805 26225.6
 10 11 2013  23 19  -21.0341 25990.4 -03505.1 -07.6806 26225.7
 10 11 2013  23 20  -21.0345 25990.0 -03505.0 -07.6805 26225.3
 10 11 2013  23 21  -21.0358 25989.5 -03504.9 -07.6804 26224.7
 10 11 2013  23 22  -21.0371 25989.1 -03504.7 -07.6802 26224.3
 10 11 2013  23 23  -21.0381 25988.9 -03504.6 -07.6800 26224.1
 10 11 2013  23 24  -21.0387 25988.9 -03504.6 -07.6800 26224.2
 10 11 2013  23 25  -21.0388 25988.8 -03504.5 -07.6799 26224.1
 10 11 2013  23 26  -21.0389 25988.6 -03504.4 -07.6796 26223.8
 10 11 2013  23 27  -21.0390 25988.2 -03504.2 -07.6793 26223.4
 10 11 2013  23 28  -21.0389 25987.6 -03503.9 -07.6789 26222.8
 10 11 2013  23 29  -21.0388 25987.1 -03503.7 -07.6785 26222.2
 10 11 2013  23 30  -21.0387 25986.7 -03503.5 -07.6783 26221.8
 10 11 2013  23 31  -21.0387 25986.4 -03503.4 -07.6781 26221.5
 10 11 2013  23 32  -21.0384 25986.1 -03503.3 -07.6780 26221.2
 10 11 2013  23 33  -21.0384 25985.7 -03503.2 -07.6779 26220.8
 10 11 2013  23 34  -21.0388 25985.3 -03503.1 -07.6778 26220.4
 10 11 2013  23 35  -21.0395 25984.7 -03502.9 -07.6776 26219.7
 10 11 2013  23 36  -21.0401 25984.2 -03502.8 -07.6774 26219.2
 10 11 2013  23 37  -21.0399 25983.8 -03502.6 -07.6772 26218.8
 10 11 2013  23 38  -21.0396 25983.5 -03502.5 -07.6770 26218.5
 10 11 2013  23 39  -21.0396 25983.2 -03502.5 -07.6770 26218.2
 10 11 2013  23 40  -21.0395 25983.2 -03502.6 -07.6773 26218.2
 10 11 2013  23 41  -21.0391 25983.2 -03502.6 -07.6773 26218.2
 10 11 2013  23 42  -21.0385 25983.0 -03502.6 -07.6773 26218.0
 10 11 2013  23 43  -21.0382 25983.0 -03502.7 -07.6775 26218.0
 10 11 2013  23 44  -21.0384 25982.8 -03502.7 -07.6776 26217.9
 10 11 2013  23 45  -21.0388 25982.8 -03502.8 -07.6779 26217.9
 10 11 2013  23 46  -21.0393 25983.0 -03503.0 -07.6782 26218.1
 10 11 2013  23 47  -21.0399 25983.1 -03503.1 -07.6785 26218.2
 10 11 2013  23 48  -21.0403 25983.1 -03503.2 -07.6786 26218.2
 10 11 2013  23 49  -21.0407 25982.9 -03503.2 -07.6786 26218.0
 10 11 2013  23 50  -21.0409 25982.9 -03503.1 -07.6786 26218.0
 10 11 2013  23 51  -21.0405 25982.8 -03503.1 -07.6785 26217.9
 10 11 2013  23 52  -21.0401 25982.9 -03503.1 -07.6785 26218.0
 10 11 2013  23 53  -21.0393 25983.2 -03503.2 -07.6787 26218.3
 10 11 2013  23 54  -21.0386 25983.6 -03503.4 -07.6790 26218.7
 10 11 2013  23 55  -21.0378 25983.8 -03503.6 -07.6793 26218.9
 10 11 2013  23 56  -21.0374 25983.9 -03503.8 -07.6797 26219.0
 10 11 2013  23 57  -21.0372 25983.8 -03503.8 -07.6798 26219.0
