SAO LUIS EMBRACE-03 <101> 1 Min. Reported data

 DD MM YYYY  HH MM   D(Deg)  H(nT)   Z(nT)   I(Deg)   F(nT)

 11 04 2013  00 00  -21.0340 26040.0 -03427.5 -07.4984 26264.6
 11 04 2013  00 01  -21.0341 26040.1 -03427.6 -07.4986 26264.7
 11 04 2013  00 02  -21.0341 26040.2 -03427.7 -07.4987 26264.8
 11 04 2013  00 03  -21.0341 26040.1 -03427.6 -07.4986 26264.8
 11 04 2013  00 04  -21.0341 26040.1 -03427.6 -07.4985 26264.7
 11 04 2013  00 05  -21.0341 26040.0 -03427.5 -07.4984 26264.5
 11 04 2013  00 06  -21.0342 26039.8 -03427.4 -07.4983 26264.4
 11 04 2013  00 07  -21.0343 26039.7 -03427.3 -07.4982 26264.3
 11 04 2013  00 08  -21.0344 26039.6 -03427.3 -07.4981 26264.2
 11 04 2013  00 09  -21.0344 26039.6 -03427.3 -07.4981 26264.2
 11 04 2013  00 10  -21.0346 26039.6 -03427.4 -07.4982 26264.2
 11 04 2013  00 11  -21.0345 26039.7 -03427.4 -07.4983 26264.3
 11 04 2013  00 12  -21.0342 26039.9 -03427.5 -07.4985 26264.5
 11 04 2013  00 13  -21.0341 26040.0 -03427.5 -07.4985 26264.6
 11 04 2013  00 14  -21.0339 26040.1 -03427.6 -07.4986 26264.7
 11 04 2013  00 15  -21.0337 26040.3 -03427.6 -07.4986 26264.9
 11 04 2013  00 16  -21.0336 26040.3 -03427.7 -07.4987 26265.0
 11 04 2013  00 17  -21.0335 26040.3 -03427.7 -07.4987 26264.9
 11 04 2013  00 18  -21.0334 26040.3 -03427.7 -07.4987 26264.9
 11 04 2013  00 19  -21.0333 26040.4 -03427.7 -07.4988 26265.1
 11 04 2013  00 20  -21.0333 26040.7 -03427.9 -07.4990 26265.3
 11 04 2013  00 21  -21.0332 26040.9 -03428.0 -07.4992 26265.6
 11 04 2013  00 22  -21.0332 26041.1 -03428.0 -07.4993 26265.8
 11 04 2013  00 23  -21.0330 26041.1 -03428.1 -07.4993 26265.8
 11 04 2013  00 24  -21.0329 26041.1 -03428.0 -07.4992 26265.8
 11 04 2013  00 25  -21.0328 26041.1 -03428.0 -07.4991 26265.7
 11 04 2013  00 26  -21.0328 26041.0 -03427.9 -07.4990 26265.6
 11 04 2013  00 27  -21.0326 26040.9 -03427.9 -07.4989 26265.6
 11 04 2013  00 28  -21.0327 26040.8 -03427.8 -07.4988 26265.4
 11 04 2013  00 29  -21.0326 26040.7 -03427.7 -07.4986 26265.3
 11 04 2013  00 30  -21.0325 26040.7 -03427.7 -07.4986 26265.3
 11 04 2013  00 31  -21.0325 26040.7 -03427.7 -07.4986 26265.3
 11 04 2013  00 32  -21.0325 26040.8 -03427.8 -07.4987 26265.4
 11 04 2013  00 33  -21.0324 26040.8 -03427.8 -07.4988 26265.4
 11 04 2013  00 34  -21.0325 26040.7 -03427.8 -07.4988 26265.4
 11 04 2013  00 35  -21.0324 26040.7 -03427.8 -07.4987 26265.4
 11 04 2013  00 36  -21.0324 26040.7 -03427.7 -07.4987 26265.3
 11 04 2013  00 37  -21.0324 26040.6 -03427.7 -07.4986 26265.3
 11 04 2013  00 38  -21.0323 26040.5 -03427.6 -07.4985 26265.1
 11 04 2013  00 39  -21.0323 26040.4 -03427.6 -07.4984 26265.0
 11 04 2013  00 40  -21.0323 26040.3 -03427.5 -07.4984 26264.9
 11 04 2013  00 41  -21.0322 26040.2 -03427.5 -07.4983 26264.8
 11 04 2013  00 42  -21.0321 26040.1 -03427.5 -07.4984 26264.7
 11 04 2013  00 43  -21.0321 26039.9 -03427.5 -07.4983 26264.5
 11 04 2013  00 44  -21.0320 26039.9 -03427.4 -07.4983 26264.5
 11 04 2013  00 45  -21.0320 26039.8 -03427.4 -07.4983 26264.4
 11 04 2013  00 46  -21.0319 26039.7 -03427.4 -07.4983 26264.3
 11 04 2013  00 47  -21.0318 26039.7 -03427.4 -07.4984 26264.3
 11 04 2013  00 48  -21.0316 26039.7 -03427.5 -07.4985 26264.3
 11 04 2013  00 49  -21.0315 26039.9 -03427.6 -07.4986 26264.5
 11 04 2013  00 50  -21.0314 26040.0 -03427.6 -07.4987 26264.6
 11 04 2013  00 51  -21.0312 26040.1 -03427.7 -07.4989 26264.7
 11 04 2013  00 52  -21.0311 26040.1 -03427.8 -07.4990 26264.8
 11 04 2013  00 53  -21.0310 26040.3 -03427.8 -07.4991 26264.9
 11 04 2013  00 54  -21.0309 26040.3 -03427.9 -07.4991 26265.0
 11 04 2013  00 55  -21.0309 26040.4 -03427.9 -07.4992 26265.1
 11 04 2013  00 56  -21.0308 26040.5 -03427.9 -07.4992 26265.1
 11 04 2013  00 57  -21.0307 26040.5 -03427.9 -07.4992 26265.2
 11 04 2013  00 58  -21.0308 26040.4 -03427.9 -07.4992 26265.0
 11 04 2013  00 59  -21.0308 26040.3 -03427.9 -07.4991 26264.9
 11 04 2013  01 00  -21.0308 26040.1 -03427.8 -07.4989 26264.8
 11 04 2013  01 01  -21.0308 26040.1 -03427.7 -07.4989 26264.7
 11 04 2013  01 02  -21.0307 26040.0 -03427.7 -07.4988 26264.6
 11 04 2013  01 03  -21.0307 26039.9 -03427.7 -07.4988 26264.6
 11 04 2013  01 04  -21.0306 26039.9 -03427.6 -07.4988 26264.5
 11 04 2013  01 05  -21.0305 26039.8 -03427.6 -07.4987 26264.5
 11 04 2013  01 06  -21.0305 26039.7 -03427.6 -07.4987 26264.4
 11 04 2013  01 07  -21.0305 26039.6 -03427.5 -07.4985 26264.2
 11 04 2013  01 08  -21.0305 26039.4 -03427.4 -07.4984 26264.0
 11 04 2013  01 09  -21.0305 26039.4 -03427.4 -07.4983 26263.9
 11 04 2013  01 10  -21.0304 26039.4 -03427.4 -07.4984 26264.0
 11 04 2013  01 11  -21.0302 26039.5 -03427.5 -07.4986 26264.1
 11 04 2013  01 12  -21.0303 26039.6 -03427.6 -07.4987 26264.2
 11 04 2013  01 13  -21.0302 26039.6 -03427.6 -07.4987 26264.2
 11 04 2013  01 14  -21.0302 26039.4 -03427.5 -07.4986 26264.0
 11 04 2013  01 15  -21.0302 26039.4 -03427.5 -07.4986 26264.0
 11 04 2013  01 16  -21.0300 26039.4 -03427.5 -07.4986 26264.0
 11 04 2013  01 17  -21.0300 26039.4 -03427.5 -07.4986 26264.1
 11 04 2013  01 18  -21.0299 26039.3 -03427.5 -07.4986 26263.9
 11 04 2013  01 19  -21.0299 26039.3 -03427.5 -07.4985 26263.9
 11 04 2013  01 20  -21.0298 26039.3 -03427.5 -07.4985 26263.9
 11 04 2013  01 21  -21.0298 26039.4 -03427.5 -07.4986 26264.0
 11 04 2013  01 22  -21.0297 26039.5 -03427.6 -07.4988 26264.2
 11 04 2013  01 23  -21.0296 26039.7 -03427.7 -07.4989 26264.3
 11 04 2013  01 24  -21.0294 26039.8 -03427.7 -07.4989 26264.4
 11 04 2013  01 25  -21.0292 26039.9 -03427.8 -07.4990 26264.6
 11 04 2013  01 26  -21.0292 26039.9 -03427.8 -07.4991 26264.6
 11 04 2013  01 27  -21.0292 26040.1 -03427.8 -07.4991 26264.7
 11 04 2013  01 28  -21.0291 26040.1 -03427.9 -07.4992 26264.8
 11 04 2013  01 29  -21.0290 26040.1 -03427.9 -07.4992 26264.8
 11 04 2013  01 30  -21.0289 26040.2 -03427.9 -07.4992 26264.9
 11 04 2013  01 31  -21.0288 26040.4 -03428.0 -07.4993 26265.0
 11 04 2013  01 32  -21.0287 26040.3 -03427.9 -07.4992 26265.0
 11 04 2013  01 33  -21.0287 26040.4 -03427.9 -07.4992 26265.0
 11 04 2013  01 34  -21.0287 26040.3 -03427.9 -07.4992 26264.9
 11 04 2013  01 35  -21.0288 26040.1 -03427.8 -07.4990 26264.8
 11 04 2013  01 36  -21.0289 26040.0 -03427.7 -07.4988 26264.6
 11 04 2013  01 37  -21.0290 26039.7 -03427.6 -07.4987 26264.4
 11 04 2013  01 38  -21.0290 26039.6 -03427.5 -07.4986 26264.2
 11 04 2013  01 39  -21.0290 26039.5 -03427.5 -07.4985 26264.1
 11 04 2013  01 40  -21.0292 26039.5 -03427.5 -07.4985 26264.1
 11 04 2013  01 41  -21.0293 26039.4 -03427.5 -07.4986 26264.0
 11 04 2013  01 42  -21.0295 26039.4 -03427.5 -07.4985 26264.0
 11 04 2013  01 43  -21.0296 26039.5 -03427.5 -07.4986 26264.1
 11 04 2013  01 44  -21.0297 26039.4 -03427.5 -07.4985 26264.0
 11 04 2013  01 45  -21.0298 26039.4 -03427.5 -07.4985 26264.1
 11 04 2013  01 46  -21.0298 26039.5 -03427.5 -07.4986 26264.1
 11 04 2013  01 47  -21.0297 26039.4 -03427.5 -07.4985 26264.0
 11 04 2013  01 48  -21.0297 26039.4 -03427.4 -07.4985 26264.0
 11 04 2013  01 49  -21.0297 26039.3 -03427.4 -07.4984 26263.9
 11 04 2013  01 50  -21.0298 26039.2 -03427.3 -07.4983 26263.8
 11 04 2013  01 51  -21.0298 26039.1 -03427.3 -07.4982 26263.7
 11 04 2013  01 52  -21.0298 26038.9 -03427.2 -07.4980 26263.5
 11 04 2013  01 53  -21.0298 26038.8 -03427.1 -07.4979 26263.4
 11 04 2013  01 54  -21.0297 26038.8 -03427.1 -07.4978 26263.3
 11 04 2013  01 55  -21.0296 26038.9 -03427.1 -07.4980 26263.4
 11 04 2013  01 56  -21.0295 26038.8 -03427.1 -07.4980 26263.4
 11 04 2013  01 57  -21.0295 26038.8 -03427.1 -07.4979 26263.3
 11 04 2013  01 58  -21.0293 26038.8 -03427.1 -07.4980 26263.3
 11 04 2013  01 59  -21.0292 26038.7 -03427.1 -07.4979 26263.2
 11 04 2013  02 00  -21.0290 26038.8 -03427.2 -07.4980 26263.4
 11 04 2013  02 01  -21.0289 26038.8 -03427.2 -07.4980 26263.4
 11 04 2013  02 02  -21.0286 26038.9 -03427.2 -07.4981 26263.5
 11 04 2013  02 03  -21.0285 26039.0 -03427.2 -07.4981 26263.6
 11 04 2013  02 04  -21.0284 26039.1 -03427.3 -07.4982 26263.7
 11 04 2013  02 05  -21.0282 26039.2 -03427.3 -07.4983 26263.7
 11 04 2013  02 06  -21.0281 26039.2 -03427.4 -07.4984 26263.8
 11 04 2013  02 07  -21.0281 26039.2 -03427.4 -07.4984 26263.8
 11 04 2013  02 08  -21.0280 26039.3 -03427.4 -07.4984 26263.9
 11 04 2013  02 09  -21.0279 26039.4 -03427.5 -07.4985 26264.0
 11 04 2013  02 10  -21.0279 26039.4 -03427.5 -07.4986 26264.0
 11 04 2013  02 11  -21.0280 26039.2 -03427.4 -07.4984 26263.8
 11 04 2013  02 12  -21.0280 26038.8 -03427.2 -07.4981 26263.4
 11 04 2013  02 13  -21.0282 26038.5 -03427.0 -07.4978 26263.0
 11 04 2013  02 14  -21.0282 26038.2 -03427.0 -07.4977 26262.8
 11 04 2013  02 15  -21.0281 26038.3 -03427.0 -07.4978 26262.8
 11 04 2013  02 16  -21.0281 26038.5 -03427.2 -07.4981 26263.1
 11 04 2013  02 17  -21.0281 26038.8 -03427.3 -07.4984 26263.4
 11 04 2013  02 18  -21.0281 26038.8 -03427.4 -07.4985 26263.4
 11 04 2013  02 19  -21.0283 26038.8 -03427.4 -07.4985 26263.4
 11 04 2013  02 20  -21.0283 26038.7 -03427.3 -07.4984 26263.3
 11 04 2013  02 21  -21.0283 26038.5 -03427.3 -07.4984 26263.1
 11 04 2013  02 22  -21.0282 26038.4 -03427.2 -07.4983 26263.0
 11 04 2013  02 23  -21.0282 26038.4 -03427.3 -07.4983 26263.0
 11 04 2013  02 24  -21.0282 26038.5 -03427.3 -07.4984 26263.1
 11 04 2013  02 25  -21.0282 26038.5 -03427.3 -07.4985 26263.1
 11 04 2013  02 26  -21.0283 26038.5 -03427.3 -07.4985 26263.0
 11 04 2013  02 27  -21.0284 26038.4 -03427.3 -07.4985 26263.0
 11 04 2013  02 28  -21.0285 26038.4 -03427.3 -07.4985 26262.9
 11 04 2013  02 29  -21.0286 26038.4 -03427.4 -07.4986 26263.0
 11 04 2013  02 30  -21.0289 26038.5 -03427.4 -07.4987 26263.1
 11 04 2013  02 31  -21.0291 26038.4 -03427.4 -07.4987 26263.0
 11 04 2013  02 32  -21.0292 26038.3 -03427.4 -07.4987 26262.9
 11 04 2013  02 33  -21.0292 26038.2 -03427.4 -07.4986 26262.8
 11 04 2013  02 34  -21.0292 26038.1 -03427.3 -07.4985 26262.7
 11 04 2013  02 35  -21.0291 26038.1 -03427.3 -07.4985 26262.7
 11 04 2013  02 36  -21.0291 26038.0 -03427.3 -07.4985 26262.6
 11 04 2013  02 37  -21.0290 26038.0 -03427.3 -07.4985 26262.6
 11 04 2013  02 38  -21.0290 26038.1 -03427.3 -07.4985 26262.7
 11 04 2013  02 39  -21.0289 26038.1 -03427.4 -07.4986 26262.7
 11 04 2013  02 40  -21.0288 26038.1 -03427.4 -07.4987 26262.7
 11 04 2013  02 41  -21.0287 26038.0 -03427.4 -07.4987 26262.6
 11 04 2013  02 42  -21.0285 26038.0 -03427.3 -07.4986 26262.6
 11 04 2013  02 43  -21.0284 26038.1 -03427.4 -07.4987 26262.7
 11 04 2013  02 44  -21.0283 26038.1 -03427.4 -07.4988 26262.7
 11 04 2013  02 45  -21.0282 26038.1 -03427.5 -07.4990 26262.7
 11 04 2013  02 46  -21.0281 26038.2 -03427.6 -07.4991 26262.8
 11 04 2013  02 47  -21.0281 26038.2 -03427.6 -07.4991 26262.8
 11 04 2013  02 48  -21.0281 26038.2 -03427.6 -07.4991 26262.8
 11 04 2013  02 49  -21.0281 26038.2 -03427.6 -07.4992 26262.8
 11 04 2013  02 50  -21.0280 26038.1 -03427.6 -07.4992 26262.8
 11 04 2013  02 51  -21.0280 26038.2 -03427.6 -07.4992 26262.9
 11 04 2013  02 52  -21.0277 26038.3 -03427.7 -07.4993 26262.9
 11 04 2013  02 53  -21.0274 26038.4 -03427.8 -07.4994 26263.0
 11 04 2013  02 54  -21.0273 26038.4 -03427.8 -07.4995 26263.1
 11 04 2013  02 55  -21.0272 26038.5 -03427.9 -07.4996 26263.1
 11 04 2013  02 56  -21.0272 26038.5 -03427.9 -07.4997 26263.2
 11 04 2013  02 57  -21.0273 26038.5 -03427.9 -07.4997 26263.1
 11 04 2013  02 58  -21.0273 26038.5 -03427.9 -07.4998 26263.1
 11 04 2013  02 59  -21.0273 26038.4 -03427.9 -07.4997 26263.1
 11 04 2013  03 00  -21.0272 26038.3 -03427.9 -07.4997 26263.0
 11 04 2013  03 01  -21.0271 26038.3 -03427.9 -07.4997 26263.0
 11 04 2013  03 02  -21.0270 26038.3 -03427.9 -07.4997 26263.0
 11 04 2013  03 03  -21.0269 26038.3 -03427.9 -07.4997 26262.9
 11 04 2013  03 04  -21.0268 26038.2 -03427.9 -07.4997 26262.9
 11 04 2013  03 05  -21.0268 26038.1 -03427.8 -07.4996 26262.8
 11 04 2013  03 06  -21.0268 26038.0 -03427.8 -07.4996 26262.7
 11 04 2013  03 07  -21.0268 26038.0 -03427.8 -07.4996 26262.6
 11 04 2013  03 08  -21.0267 26038.1 -03427.9 -07.4997 26262.8
 11 04 2013  03 09  -21.0266 26038.1 -03427.9 -07.4998 26262.8
 11 04 2013  03 10  -21.0265 26038.3 -03428.0 -07.4999 26263.0
 11 04 2013  03 11  -21.0264 26038.4 -03428.0 -07.5000 26263.1
 11 04 2013  03 12  -21.0262 26038.4 -03428.0 -07.5000 26263.1
 11 04 2013  03 13  -21.0260 26038.5 -03428.1 -07.5001 26263.2
 11 04 2013  03 14  -21.0258 26038.5 -03428.1 -07.5000 26263.2
 11 04 2013  03 15  -21.0257 26038.6 -03428.1 -07.5001 26263.3
 11 04 2013  03 16  -21.0258 26038.6 -03428.1 -07.5002 26263.3
 11 04 2013  03 17  -21.0258 26038.5 -03428.1 -07.5001 26263.2
 11 04 2013  03 18  -21.0259 26038.5 -03428.1 -07.5001 26263.2
 11 04 2013  03 19  -21.0260 26038.4 -03428.0 -07.5000 26263.1
 11 04 2013  03 20  -21.0259 26038.4 -03428.0 -07.5000 26263.1
 11 04 2013  03 21  -21.0259 26038.4 -03428.0 -07.5000 26263.1
 11 04 2013  03 22  -21.0259 26038.5 -03428.0 -07.4999 26263.1
 11 04 2013  03 23  -21.0258 26038.4 -03428.0 -07.4998 26263.1
 11 04 2013  03 24  -21.0256 26038.5 -03427.9 -07.4998 26263.1
 11 04 2013  03 25  -21.0256 26038.4 -03427.9 -07.4998 26263.1
 11 04 2013  03 26  -21.0256 26038.3 -03427.9 -07.4997 26263.0
 11 04 2013  03 27  -21.0255 26038.3 -03427.9 -07.4998 26263.0
 11 04 2013  03 28  -21.0253 26038.3 -03427.9 -07.4998 26263.0
 11 04 2013  03 29  -21.0251 26038.4 -03427.9 -07.4998 26263.0
 11 04 2013  03 30  -21.0251 26038.4 -03428.0 -07.4998 26263.1
 11 04 2013  03 31  -21.0250 26038.4 -03427.9 -07.4997 26263.1
 11 04 2013  03 32  -21.0248 26038.5 -03427.9 -07.4997 26263.1
 11 04 2013  03 33  -21.0248 26038.4 -03427.9 -07.4997 26263.1
 11 04 2013  03 34  -21.0250 26038.3 -03427.8 -07.4996 26263.0
 11 04 2013  03 35  -21.0250 26038.3 -03427.8 -07.4996 26263.0
 11 04 2013  03 36  -21.0250 26038.2 -03427.8 -07.4995 26262.8
 11 04 2013  03 37  -21.0250 26038.2 -03427.8 -07.4995 26262.9
 11 04 2013  03 38  -21.0251 26038.2 -03427.8 -07.4995 26262.9
 11 04 2013  03 39  -21.0251 26038.2 -03427.8 -07.4995 26262.9
 11 04 2013  03 40  -21.0251 26038.3 -03427.8 -07.4995 26262.9
 11 04 2013  03 41  -21.0251 26038.2 -03427.7 -07.4994 26262.9
 11 04 2013  03 42  -21.0252 26038.2 -03427.7 -07.4994 26262.9
 11 04 2013  03 43  -21.0252 26038.3 -03427.8 -07.4994 26263.0
 11 04 2013  03 44  -21.0252 26038.4 -03427.8 -07.4995 26263.0
 11 04 2013  03 45  -21.0253 26038.5 -03427.8 -07.4995 26263.1
 11 04 2013  03 46  -21.0253 26038.5 -03427.8 -07.4996 26263.1
 11 04 2013  03 47  -21.0252 26038.4 -03427.8 -07.4995 26263.1
 11 04 2013  03 48  -21.0252 26038.4 -03427.8 -07.4994 26263.0
 11 04 2013  03 49  -21.0252 26038.3 -03427.7 -07.4994 26263.0
 11 04 2013  03 50  -21.0252 26038.3 -03427.8 -07.4994 26263.0
 11 04 2013  03 51  -21.0253 26038.3 -03427.7 -07.4994 26263.0
 11 04 2013  03 52  -21.0253 26038.2 -03427.7 -07.4994 26262.9
 11 04 2013  03 53  -21.0254 26038.3 -03427.8 -07.4995 26262.9
 11 04 2013  03 54  -21.0254 26038.2 -03427.7 -07.4994 26262.8
 11 04 2013  03 55  -21.0254 26038.1 -03427.7 -07.4994 26262.7
 11 04 2013  03 56  -21.0255 26038.1 -03427.7 -07.4994 26262.7
 11 04 2013  03 57  -21.0255 26038.0 -03427.7 -07.4995 26262.7
 11 04 2013  03 58  -21.0256 26038.0 -03427.8 -07.4996 26262.7
 11 04 2013  03 59  -21.0255 26038.1 -03427.8 -07.4996 26262.7
 11 04 2013  04 00  -21.0255 26038.1 -03427.8 -07.4997 26262.8
 11 04 2013  04 01  -21.0255 26038.2 -03427.9 -07.4998 26262.8
 11 04 2013  04 02  -21.0256 26038.1 -03427.9 -07.4998 26262.8
 11 04 2013  04 03  -21.0258 26038.1 -03427.9 -07.4998 26262.8
 11 04 2013  04 04  -21.0259 26038.1 -03428.0 -07.4999 26262.8
 11 04 2013  04 05  -21.0260 26038.0 -03427.9 -07.4999 26262.7
 11 04 2013  04 06  -21.0261 26038.0 -03427.9 -07.4999 26262.6
 11 04 2013  04 07  -21.0263 26037.9 -03427.9 -07.4999 26262.6
 11 04 2013  04 08  -21.0266 26037.7 -03427.8 -07.4998 26262.4
 11 04 2013  04 09  -21.0269 26037.7 -03427.9 -07.4998 26262.3
 11 04 2013  04 10  -21.0270 26037.6 -03427.8 -07.4998 26262.2
 11 04 2013  04 11  -21.0272 26037.5 -03427.8 -07.4998 26262.1
 11 04 2013  04 12  -21.0272 26037.5 -03427.8 -07.4998 26262.1
 11 04 2013  04 13  -21.0273 26037.6 -03427.9 -07.4999 26262.2
 11 04 2013  04 14  -21.0273 26037.5 -03427.9 -07.4999 26262.2
 11 04 2013  04 15  -21.0274 26037.4 -03427.9 -07.4999 26262.1
 11 04 2013  04 16  -21.0277 26037.4 -03427.9 -07.5000 26262.1
 11 04 2013  04 17  -21.0279 26037.4 -03427.9 -07.5000 26262.1
 11 04 2013  04 18  -21.0282 26037.4 -03427.9 -07.5001 26262.1
 11 04 2013  04 19  -21.0285 26037.4 -03428.0 -07.5001 26262.1
 11 04 2013  04 20  -21.0287 26037.4 -03428.0 -07.5002 26262.1
 11 04 2013  04 21  -21.0289 26037.4 -03428.0 -07.5002 26262.1
 11 04 2013  04 22  -21.0290 26037.4 -03428.0 -07.5003 26262.1
 11 04 2013  04 23  -21.0293 26037.4 -03428.0 -07.5003 26262.1
 11 04 2013  04 24  -21.0295 26037.5 -03428.1 -07.5004 26262.2
 11 04 2013  04 25  -21.0297 26037.5 -03428.1 -07.5005 26262.2
 11 04 2013  04 26  -21.0298 26037.4 -03428.1 -07.5004 26262.1
 11 04 2013  04 27  -21.0299 26037.4 -03428.1 -07.5004 26262.1
 11 04 2013  04 28  -21.0301 26037.4 -03428.1 -07.5004 26262.1
 11 04 2013  04 29  -21.0302 26037.4 -03428.1 -07.5004 26262.1
 11 04 2013  04 30  -21.0303 26037.3 -03428.1 -07.5005 26262.0
 11 04 2013  04 31  -21.0305 26037.3 -03428.1 -07.5005 26262.0
 11 04 2013  04 32  -21.0305 26037.3 -03428.1 -07.5005 26262.0
 11 04 2013  04 33  -21.0305 26037.4 -03428.2 -07.5006 26262.1
 11 04 2013  04 34  -21.0305 26037.4 -03428.2 -07.5006 26262.1
 11 04 2013  04 35  -21.0306 26037.5 -03428.2 -07.5006 26262.2
 11 04 2013  04 36  -21.0305 26037.5 -03428.2 -07.5007 26262.2
 11 04 2013  04 37  -21.0305 26037.7 -03428.3 -07.5009 26262.4
 11 04 2013  04 38  -21.0305 26037.8 -03428.4 -07.5009 26262.5
 11 04 2013  04 39  -21.0306 26037.7 -03428.4 -07.5009 26262.5
 11 04 2013  04 40  -21.0306 26037.7 -03428.3 -07.5009 26262.4
 11 04 2013  04 41  -21.0307 26037.7 -03428.3 -07.5009 26262.4
 11 04 2013  04 42  -21.0308 26037.7 -03428.3 -07.5008 26262.4
 11 04 2013  04 43  -21.0308 26037.6 -03428.3 -07.5008 26262.4
 11 04 2013  04 44  -21.0308 26037.6 -03428.3 -07.5009 26262.4
 11 04 2013  04 45  -21.0309 26037.6 -03428.3 -07.5008 26262.3
 11 04 2013  04 46  -21.0308 26037.6 -03428.3 -07.5009 26262.3
 11 04 2013  04 47  -21.0308 26037.7 -03428.4 -07.5009 26262.4
 11 04 2013  04 48  -21.0307 26037.8 -03428.5 -07.5011 26262.6
 11 04 2013  04 49  -21.0305 26038.1 -03428.5 -07.5012 26262.8
 11 04 2013  04 50  -21.0303 26038.1 -03428.6 -07.5013 26262.9
 11 04 2013  04 51  -21.0301 26038.2 -03428.6 -07.5014 26263.0
 11 04 2013  04 52  -21.0300 26038.2 -03428.6 -07.5013 26263.0
 11 04 2013  04 53  -21.0300 26038.3 -03428.7 -07.5014 26263.1
 11 04 2013  04 54  -21.0300 26038.2 -03428.7 -07.5014 26263.0
 11 04 2013  04 55  -21.0301 26038.2 -03428.6 -07.5013 26263.0
 11 04 2013  04 56  -21.0301 26038.4 -03428.7 -07.5015 26263.2
 11 04 2013  04 57  -21.0300 26038.3 -03428.7 -07.5015 26263.1
 11 04 2013  04 58  -21.0300 26038.4 -03428.7 -07.5015 26263.2
 11 04 2013  04 59  -21.0301 26038.7 -03428.9 -07.5017 26263.5
 11 04 2013  05 00  -21.0299 26038.6 -03428.8 -07.5016 26263.4
 11 04 2013  05 01  -21.0297 26038.8 -03428.9 -07.5017 26263.6
 11 04 2013  05 02  -21.0295 26038.9 -03429.0 -07.5019 26263.7
 11 04 2013  05 03  -21.0293 26039.0 -03429.0 -07.5019 26263.8
 11 04 2013  05 04  -21.0292 26039.0 -03429.0 -07.5019 26263.8
 11 04 2013  05 05  -21.0291 26039.1 -03429.0 -07.5020 26263.9
 11 04 2013  05 06  -21.0290 26039.0 -03429.0 -07.5019 26263.8
 11 04 2013  05 07  -21.0289 26039.1 -03429.1 -07.5020 26264.0
 11 04 2013  05 08  -21.0287 26039.1 -03429.0 -07.5020 26263.9
 11 04 2013  05 09  -21.0286 26039.0 -03429.0 -07.5019 26263.8
 11 04 2013  05 10  -21.0285 26039.0 -03429.0 -07.5019 26263.8
 11 04 2013  05 11  -21.0285 26038.9 -03429.0 -07.5019 26263.7
 11 04 2013  05 12  -21.0285 26038.9 -03429.0 -07.5019 26263.7
 11 04 2013  05 13  -21.0286 26038.8 -03429.0 -07.5019 26263.6
 11 04 2013  05 14  -21.0287 26038.8 -03429.0 -07.5019 26263.6
 11 04 2013  05 15  -21.0287 26038.7 -03428.9 -07.5018 26263.5
 11 04 2013  05 16  -21.0288 26038.7 -03428.9 -07.5018 26263.5
 11 04 2013  05 17  -21.0288 26038.7 -03428.9 -07.5018 26263.5
 11 04 2013  05 18  -21.0289 26038.6 -03428.9 -07.5018 26263.4
 11 04 2013  05 19  -21.0289 26038.6 -03428.9 -07.5018 26263.4
 11 04 2013  05 20  -21.0290 26038.8 -03429.0 -07.5019 26263.6
 11 04 2013  05 21  -21.0290 26039.2 -03429.2 -07.5022 26264.1
 11 04 2013  05 22  -21.0286 26039.3 -03429.2 -07.5023 26264.1
 11 04 2013  05 23  -21.0282 26039.4 -03429.3 -07.5024 26264.2
 11 04 2013  05 24  -21.0280 26039.6 -03429.4 -07.5026 26264.5
 11 04 2013  05 25  -21.0278 26039.7 -03429.5 -07.5028 26264.5
 11 04 2013  05 26  -21.0277 26039.7 -03429.5 -07.5028 26264.6
 11 04 2013  05 27  -21.0278 26039.7 -03429.5 -07.5029 26264.6
 11 04 2013  05 28  -21.0279 26039.7 -03429.5 -07.5028 26264.6
 11 04 2013  05 29  -21.0279 26039.7 -03429.5 -07.5028 26264.5
 11 04 2013  05 30  -21.0280 26039.7 -03429.4 -07.5027 26264.5
 11 04 2013  05 31  -21.0280 26039.7 -03429.4 -07.5027 26264.6
 11 04 2013  05 32  -21.0281 26039.7 -03429.4 -07.5026 26264.6
 11 04 2013  05 33  -21.0281 26039.7 -03429.4 -07.5027 26264.6
 11 04 2013  05 34  -21.0279 26039.8 -03429.5 -07.5027 26264.6
 11 04 2013  05 35  -21.0277 26039.8 -03429.5 -07.5027 26264.6
 11 04 2013  05 36  -21.0277 26040.0 -03429.5 -07.5028 26264.8
 11 04 2013  05 37  -21.0278 26040.0 -03429.6 -07.5029 26264.8
 11 04 2013  05 38  -21.0279 26040.1 -03429.6 -07.5029 26265.0
 11 04 2013  05 39  -21.0278 26040.2 -03429.7 -07.5030 26265.1
 11 04 2013  05 40  -21.0276 26040.3 -03429.7 -07.5031 26265.2
 11 04 2013  05 41  -21.0274 26040.6 -03429.8 -07.5032 26265.5
 11 04 2013  05 42  -21.0272 26040.8 -03429.9 -07.5034 26265.7
 11 04 2013  05 43  -21.0270 26041.0 -03430.0 -07.5035 26265.9
 11 04 2013  05 44  -21.0269 26041.3 -03430.1 -07.5038 26266.2
 11 04 2013  05 45  -21.0269 26041.5 -03430.2 -07.5039 26266.4
 11 04 2013  05 46  -21.0268 26041.7 -03430.3 -07.5040 26266.6
 11 04 2013  05 47  -21.0267 26041.8 -03430.4 -07.5041 26266.7
 11 04 2013  05 48  -21.0269 26041.5 -03430.2 -07.5039 26266.5
 11 04 2013  05 49  -21.0272 26041.3 -03430.1 -07.5036 26266.2
 11 04 2013  05 50  -21.0276 26041.0 -03430.0 -07.5034 26266.0
 11 04 2013  05 51  -21.0278 26040.9 -03429.9 -07.5033 26265.8
 11 04 2013  05 52  -21.0280 26040.9 -03429.9 -07.5032 26265.8
 11 04 2013  05 53  -21.0284 26041.0 -03429.9 -07.5034 26265.9
 11 04 2013  05 54  -21.0288 26041.0 -03429.9 -07.5034 26265.9
 11 04 2013  05 55  -21.0290 26040.9 -03429.9 -07.5032 26265.8
 11 04 2013  05 56  -21.0292 26040.8 -03429.8 -07.5032 26265.7
 11 04 2013  05 57  -21.0294 26040.9 -03429.8 -07.5031 26265.8
 11 04 2013  05 58  -21.0294 26041.0 -03429.8 -07.5032 26265.9
 11 04 2013  05 59  -21.0293 26041.0 -03429.8 -07.5031 26265.8
 11 04 2013  06 00  -21.0291 26041.0 -03429.8 -07.5030 26265.9
 11 04 2013  06 01  -21.0289 26041.0 -03429.8 -07.5031 26265.9
 11 04 2013  06 02  -21.0287 26041.0 -03429.8 -07.5031 26265.9
 11 04 2013  06 03  -21.0287 26041.0 -03429.8 -07.5031 26265.9
 11 04 2013  06 04  -21.0287 26041.0 -03429.8 -07.5031 26265.9
 11 04 2013  06 05  -21.0287 26040.9 -03429.7 -07.5030 26265.8
 11 04 2013  06 06  -21.0288 26040.8 -03429.7 -07.5029 26265.7
 11 04 2013  06 07  -21.0289 26040.8 -03429.7 -07.5029 26265.6
 11 04 2013  06 08  -21.0291 26040.6 -03429.6 -07.5028 26265.5
 11 04 2013  06 09  -21.0294 26040.7 -03429.6 -07.5028 26265.5
 11 04 2013  06 10  -21.0295 26040.7 -03429.6 -07.5028 26265.6
 11 04 2013  06 11  -21.0294 26040.7 -03429.6 -07.5028 26265.6
 11 04 2013  06 12  -21.0293 26040.9 -03429.7 -07.5029 26265.7
 11 04 2013  06 13  -21.0291 26040.9 -03429.7 -07.5029 26265.8
 11 04 2013  06 14  -21.0290 26040.7 -03429.6 -07.5027 26265.6
 11 04 2013  06 15  -21.0291 26041.1 -03429.7 -07.5029 26265.9
 11 04 2013  06 16  -21.0287 26040.9 -03429.7 -07.5029 26265.8
 11 04 2013  06 17  -21.0285 26040.9 -03429.7 -07.5028 26265.7
 11 04 2013  06 18  -21.0285 26040.9 -03429.7 -07.5029 26265.7
 11 04 2013  06 19  -21.0284 26040.7 -03429.6 -07.5028 26265.6
 11 04 2013  06 20  -21.0284 26040.8 -03429.7 -07.5029 26265.7
 11 04 2013  06 21  -21.0284 26040.7 -03429.6 -07.5028 26265.5
 11 04 2013  06 22  -21.0284 26040.5 -03429.6 -07.5028 26265.4
 11 04 2013  06 23  -21.0283 26040.7 -03429.7 -07.5029 26265.6
 11 04 2013  06 24  -21.0280 26040.8 -03429.8 -07.5030 26265.7
 11 04 2013  06 25  -21.0277 26040.9 -03429.8 -07.5032 26265.8
 11 04 2013  06 26  -21.0277 26041.1 -03430.0 -07.5034 26266.1
 11 04 2013  06 27  -21.0277 26041.2 -03430.1 -07.5036 26266.2
 11 04 2013  06 28  -21.0275 26041.3 -03430.1 -07.5036 26266.2
 11 04 2013  06 29  -21.0273 26041.5 -03430.2 -07.5038 26266.4
 11 04 2013  06 30  -21.0273 26041.5 -03430.3 -07.5040 26266.5
 11 04 2013  06 31  -21.0275 26041.4 -03430.3 -07.5040 26266.3
 11 04 2013  06 32  -21.0280 26041.4 -03430.3 -07.5040 26266.3
 11 04 2013  06 33  -21.0284 26041.2 -03430.2 -07.5039 26266.2
 11 04 2013  06 34  -21.0287 26041.1 -03430.1 -07.5037 26266.1
 11 04 2013  06 35  -21.0289 26040.9 -03430.0 -07.5036 26265.9
 11 04 2013  06 36  -21.0290 26040.7 -03429.9 -07.5034 26265.7
 11 04 2013  06 37  -21.0290 26040.8 -03429.8 -07.5033 26265.7
 11 04 2013  06 38  -21.0291 26040.8 -03429.9 -07.5033 26265.7
 11 04 2013  06 39  -21.0290 26040.9 -03430.0 -07.5035 26265.8
 11 04 2013  06 40  -21.0288 26041.0 -03430.0 -07.5036 26265.9
 11 04 2013  06 41  -21.0287 26041.1 -03430.1 -07.5037 26266.0
 11 04 2013  06 42  -21.0287 26041.2 -03430.1 -07.5038 26266.1
 11 04 2013  06 43  -21.0287 26041.2 -03430.2 -07.5038 26266.1
 11 04 2013  06 44  -21.0288 26041.2 -03430.1 -07.5038 26266.1
 11 04 2013  06 45  -21.0287 26041.2 -03430.2 -07.5038 26266.2
 11 04 2013  06 46  -21.0288 26041.2 -03430.2 -07.5038 26266.2
 11 04 2013  06 47  -21.0290 26041.2 -03430.2 -07.5038 26266.2
 11 04 2013  06 48  -21.0291 26041.2 -03430.2 -07.5039 26266.2
 11 04 2013  06 49  -21.0294 26041.2 -03430.1 -07.5038 26266.1
 11 04 2013  06 50  -21.0296 26041.4 -03430.2 -07.5038 26266.3
 11 04 2013  06 51  -21.0297 26041.5 -03430.2 -07.5038 26266.4
 11 04 2013  06 52  -21.0297 26041.6 -03430.2 -07.5038 26266.5
 11 04 2013  06 53  -21.0296 26041.6 -03430.3 -07.5039 26266.6
 11 04 2013  06 54  -21.0295 26041.6 -03430.3 -07.5039 26266.6
 11 04 2013  06 55  -21.0295 26041.6 -03430.2 -07.5038 26266.6
 11 04 2013  06 56  -21.0292 26041.6 -03430.2 -07.5037 26266.5
 11 04 2013  06 57  -21.0288 26041.8 -03430.2 -07.5038 26266.7
 11 04 2013  06 58  -21.0284 26042.1 -03430.3 -07.5039 26267.0
 11 04 2013  06 59  -21.0281 26042.2 -03430.4 -07.5041 26267.2
 11 04 2013  07 00  -21.0279 26042.0 -03430.3 -07.5039 26266.9
 11 04 2013  07 01  -21.0279 26042.2 -03430.3 -07.5039 26267.1
 11 04 2013  07 02  -21.0282 26042.4 -03430.4 -07.5041 26267.3
 11 04 2013  07 03  -21.0283 26042.3 -03430.4 -07.5040 26267.3
 11 04 2013  07 04  -21.0284 26042.3 -03430.4 -07.5039 26267.3
 11 04 2013  07 05  -21.0287 26042.1 -03430.3 -07.5038 26267.1
 11 04 2013  07 06  -21.0287 26042.5 -03430.4 -07.5039 26267.5
 11 04 2013  07 07  -21.0292 26042.4 -03430.4 -07.5039 26267.4
 11 04 2013  07 08  -21.0295 26042.3 -03430.3 -07.5037 26267.3
 11 04 2013  07 09  -21.0294 26042.6 -03430.4 -07.5038 26267.6
 11 04 2013  07 10  -21.0297 26042.8 -03430.4 -07.5039 26267.7
 11 04 2013  07 11  -21.0300 26042.8 -03430.4 -07.5038 26267.8
 11 04 2013  07 12  -21.0300 26043.0 -03430.4 -07.5038 26267.9
 11 04 2013  07 13  -21.0296 26043.3 -03430.4 -07.5038 26268.2
 11 04 2013  07 14  -21.0297 26043.0 -03430.3 -07.5035 26268.0
 11 04 2013  07 15  -21.0293 26043.0 -03430.1 -07.5033 26267.9
 11 04 2013  07 16  -21.0289 26043.3 -03430.3 -07.5034 26268.2
 11 04 2013  07 17  -21.0284 26043.5 -03430.3 -07.5035 26268.4
 11 04 2013  07 18  -21.0278 26043.6 -03430.3 -07.5035 26268.5
 11 04 2013  07 19  -21.0272 26043.9 -03430.5 -07.5038 26268.8
 11 04 2013  07 20  -21.0266 26043.9 -03430.5 -07.5038 26268.9
 11 04 2013  07 21  -21.0264 26043.7 -03430.4 -07.5036 26268.6
 11 04 2013  07 22  -21.0260 26043.8 -03430.4 -07.5036 26268.7
 11 04 2013  07 23  -21.0259 26043.8 -03430.4 -07.5037 26268.7
 11 04 2013  07 24  -21.0259 26043.9 -03430.5 -07.5038 26268.8
 11 04 2013  07 25  -21.0260 26044.0 -03430.6 -07.5040 26269.0
 11 04 2013  07 26  -21.0264 26044.0 -03430.6 -07.5039 26269.0
 11 04 2013  07 27  -21.0264 26044.2 -03430.7 -07.5040 26269.2
 11 04 2013  07 28  -21.0263 26044.4 -03430.7 -07.5041 26269.4
 11 04 2013  07 29  -21.0260 26044.6 -03430.8 -07.5043 26269.6
 11 04 2013  07 30  -21.0257 26044.7 -03430.9 -07.5043 26269.7
 11 04 2013  07 31  -21.0250 26044.6 -03430.7 -07.5040 26269.6
 11 04 2013  07 32  -21.0244 26044.4 -03430.6 -07.5039 26269.4
 11 04 2013  07 33  -21.0240 26044.4 -03430.6 -07.5039 26269.3
 11 04 2013  07 34  -21.0239 26044.5 -03430.7 -07.5040 26269.5
 11 04 2013  07 35  -21.0238 26044.4 -03430.7 -07.5040 26269.4
 11 04 2013  07 36  -21.0238 26044.4 -03430.7 -07.5040 26269.4
 11 04 2013  07 37  -21.0238 26044.4 -03430.7 -07.5040 26269.4
 11 04 2013  07 38  -21.0235 26044.6 -03430.7 -07.5041 26269.6
 11 04 2013  07 39  -21.0230 26044.7 -03430.8 -07.5042 26269.7
 11 04 2013  07 40  -21.0230 26044.8 -03430.9 -07.5044 26269.8
 11 04 2013  07 41  -21.0227 26044.5 -03430.7 -07.5041 26269.5
 11 04 2013  07 42  -21.0223 26044.4 -03430.7 -07.5040 26269.4
 11 04 2013  07 43  -21.0223 26044.3 -03430.6 -07.5039 26269.2
 11 04 2013  07 44  -21.0219 26044.3 -03430.7 -07.5040 26269.3
 11 04 2013  07 45  -21.0214 26044.3 -03430.7 -07.5041 26269.3
 11 04 2013  07 46  -21.0212 26044.5 -03430.8 -07.5042 26269.5
 11 04 2013  07 47  -21.0212 26044.6 -03430.9 -07.5044 26269.6
 11 04 2013  07 48  -21.0210 26044.5 -03430.9 -07.5045 26269.5
 11 04 2013  07 49  -21.0209 26044.3 -03430.8 -07.5044 26269.3
 11 04 2013  07 50  -21.0208 26044.3 -03430.8 -07.5044 26269.3
 11 04 2013  07 51  -21.0206 26044.2 -03430.8 -07.5043 26269.2
 11 04 2013  07 52  -21.0206 26044.2 -03430.8 -07.5043 26269.2
 11 04 2013  07 53  -21.0207 26044.2 -03430.8 -07.5044 26269.2
 11 04 2013  07 54  -21.0207 26044.1 -03430.8 -07.5044 26269.1
 11 04 2013  07 55  -21.0206 26044.1 -03430.8 -07.5044 26269.1
 11 04 2013  07 56  -21.0205 26044.1 -03430.8 -07.5044 26269.1
 11 04 2013  07 57  -21.0203 26044.0 -03430.7 -07.5042 26269.0
 11 04 2013  07 58  -21.0202 26043.9 -03430.6 -07.5041 26268.9
 11 04 2013  07 59  -21.0202 26043.7 -03430.6 -07.5040 26268.7
 11 04 2013  08 00  -21.0201 26043.7 -03430.6 -07.5040 26268.7
 11 04 2013  08 01  -21.0197 26043.7 -03430.6 -07.5041 26268.6
 11 04 2013  08 02  -21.0193 26043.7 -03430.7 -07.5042 26268.7
 11 04 2013  08 03  -21.0192 26043.7 -03430.7 -07.5043 26268.7
 11 04 2013  08 04  -21.0190 26043.8 -03430.7 -07.5044 26268.8
 11 04 2013  08 05  -21.0188 26043.7 -03430.7 -07.5043 26268.7
 11 04 2013  08 06  -21.0187 26043.7 -03430.7 -07.5043 26268.7
 11 04 2013  08 07  -21.0185 26043.6 -03430.7 -07.5043 26268.5
 11 04 2013  08 08  -21.0183 26043.4 -03430.7 -07.5043 26268.4
 11 04 2013  08 09  -21.0182 26043.2 -03430.6 -07.5042 26268.2
 11 04 2013  08 10  -21.0183 26042.9 -03430.6 -07.5042 26267.9
 11 04 2013  08 11  -21.0182 26042.8 -03430.6 -07.5042 26267.8
 11 04 2013  08 12  -21.0181 26042.8 -03430.6 -07.5044 26267.8
 11 04 2013  08 13  -21.0181 26042.9 -03430.7 -07.5044 26267.9
 11 04 2013  08 14  -21.0183 26042.9 -03430.7 -07.5045 26267.9
 11 04 2013  08 15  -21.0187 26042.8 -03430.7 -07.5045 26267.8
 11 04 2013  08 16  -21.0192 26042.7 -03430.7 -07.5045 26267.7
 11 04 2013  08 17  -21.0195 26042.6 -03430.7 -07.5045 26267.6
 11 04 2013  08 18  -21.0196 26042.3 -03430.6 -07.5043 26267.3
 11 04 2013  08 19  -21.0198 26042.1 -03430.5 -07.5043 26267.1
 11 04 2013  08 20  -21.0203 26042.2 -03430.6 -07.5044 26267.1
 11 04 2013  08 21  -21.0205 26042.0 -03430.5 -07.5044 26267.0
 11 04 2013  08 22  -21.0205 26041.9 -03430.5 -07.5043 26266.9
 11 04 2013  08 23  -21.0205 26042.0 -03430.4 -07.5041 26267.0
 11 04 2013  08 24  -21.0205 26041.8 -03430.4 -07.5042 26266.8
 11 04 2013  08 25  -21.0204 26041.6 -03430.3 -07.5040 26266.6
 11 04 2013  08 26  -21.0206 26041.5 -03430.3 -07.5040 26266.5
 11 04 2013  08 27  -21.0206 26041.3 -03430.3 -07.5040 26266.3
 11 04 2013  08 28  -21.0207 26041.2 -03430.2 -07.5040 26266.1
 11 04 2013  08 29  -21.0209 26041.1 -03430.2 -07.5040 26266.0
 11 04 2013  08 30  -21.0211 26041.2 -03430.4 -07.5043 26266.2
 11 04 2013  08 31  -21.0210 26041.0 -03430.3 -07.5041 26266.0
 11 04 2013  08 32  -21.0209 26041.2 -03430.3 -07.5041 26266.1
 11 04 2013  08 33  -21.0209 26041.2 -03430.3 -07.5041 26266.1
 11 04 2013  08 34  -21.0209 26041.1 -03430.3 -07.5041 26266.0
 11 04 2013  08 35  -21.0208 26040.9 -03430.2 -07.5040 26265.8
 11 04 2013  08 36  -21.0208 26040.7 -03430.2 -07.5040 26265.6
 11 04 2013  08 37  -21.0205 26040.5 -03430.1 -07.5039 26265.4
 11 04 2013  08 38  -21.0199 26040.3 -03430.0 -07.5037 26265.2
 11 04 2013  08 39  -21.0193 26040.3 -03429.9 -07.5036 26265.2
 11 04 2013  08 40  -21.0192 26040.2 -03430.0 -07.5036 26265.1
 11 04 2013  08 41  -21.0193 26040.3 -03430.0 -07.5036 26265.2
 11 04 2013  08 42  -21.0198 26040.1 -03430.0 -07.5037 26265.0
 11 04 2013  08 43  -21.0195 26039.9 -03429.9 -07.5037 26264.8
 11 04 2013  08 44  -21.0187 26039.9 -03429.9 -07.5037 26264.8
 11 04 2013  08 45  -21.0184 26039.8 -03429.9 -07.5037 26264.7
 11 04 2013  08 46  -21.0181 26039.7 -03429.9 -07.5038 26264.6
 11 04 2013  08 47  -21.0178 26040.0 -03430.2 -07.5043 26265.0
 11 04 2013  08 48  -21.0173 26040.4 -03430.5 -07.5047 26265.4
 11 04 2013  08 49  -21.0166 26040.3 -03430.6 -07.5049 26265.3
 11 04 2013  08 50  -21.0159 26040.8 -03430.8 -07.5053 26265.8
 11 04 2013  08 51  -21.0153 26040.9 -03431.0 -07.5056 26266.0
 11 04 2013  08 52  -21.0144 26040.8 -03430.9 -07.5055 26265.9
 11 04 2013  08 53  -21.0138 26040.8 -03430.9 -07.5055 26265.9
 11 04 2013  08 54  -21.0130 26040.6 -03430.8 -07.5054 26265.7
 11 04 2013  08 55  -21.0127 26040.4 -03430.9 -07.5057 26265.5
 11 04 2013  08 56  -21.0125 26040.3 -03431.0 -07.5060 26265.4
 11 04 2013  08 57  -21.0123 26040.2 -03431.1 -07.5061 26265.3
 11 04 2013  08 58  -21.0124 26040.2 -03431.2 -07.5064 26265.3
 11 04 2013  08 59  -21.0127 26040.2 -03431.3 -07.5065 26265.3
 11 04 2013  09 00  -21.0127 26040.3 -03431.3 -07.5065 26265.4
 11 04 2013  09 01  -21.0125 26040.4 -03431.3 -07.5066 26265.5
 11 04 2013  09 02  -21.0124 26040.3 -03431.4 -07.5068 26265.4
 11 04 2013  09 03  -21.0122 26040.4 -03431.6 -07.5071 26265.5
 11 04 2013  09 04  -21.0121 26040.5 -03431.8 -07.5075 26265.6
 11 04 2013  09 05  -21.0121 26040.6 -03432.0 -07.5080 26265.8
 11 04 2013  09 06  -21.0119 26040.7 -03432.1 -07.5082 26265.9
 11 04 2013  09 07  -21.0115 26040.8 -03432.2 -07.5084 26266.0
 11 04 2013  09 08  -21.0111 26040.8 -03432.2 -07.5084 26266.0
 11 04 2013  09 09  -21.0110 26040.9 -03432.3 -07.5086 26266.1
 11 04 2013  09 10  -21.0111 26041.0 -03432.5 -07.5089 26266.2
 11 04 2013  09 11  -21.0110 26041.0 -03432.6 -07.5092 26266.3
 11 04 2013  09 12  -21.0109 26041.1 -03432.8 -07.5096 26266.4
 11 04 2013  09 13  -21.0107 26041.2 -03432.9 -07.5098 26266.5
 11 04 2013  09 14  -21.0106 26041.3 -03433.0 -07.5100 26266.6
 11 04 2013  09 15  -21.0101 26041.6 -03433.2 -07.5102 26267.0
 11 04 2013  09 16  -21.0097 26041.8 -03433.3 -07.5104 26267.1
 11 04 2013  09 17  -21.0096 26041.7 -03433.3 -07.5105 26267.1
 11 04 2013  09 18  -21.0101 26041.8 -03433.5 -07.5108 26267.2
 11 04 2013  09 19  -21.0107 26041.8 -03433.6 -07.5111 26267.2
 11 04 2013  09 20  -21.0110 26041.7 -03433.6 -07.5111 26267.1
 11 04 2013  09 21  -21.0117 26041.5 -03433.6 -07.5111 26266.9
 11 04 2013  09 22  -21.0127 26041.5 -03433.7 -07.5114 26266.9
 11 04 2013  09 23  -21.0133 26041.6 -03433.8 -07.5116 26267.0
 11 04 2013  09 24  -21.0129 26041.9 -03433.9 -07.5117 26267.3
 11 04 2013  09 25  -21.0116 26042.0 -03433.9 -07.5116 26267.4
 11 04 2013  09 26  -21.0114 26042.1 -03433.9 -07.5116 26267.6
 11 04 2013  09 27  -21.0113 26042.3 -03434.0 -07.5118 26267.7
 11 04 2013  09 28  -21.0117 26042.2 -03434.0 -07.5118 26267.6
 11 04 2013  09 29  -21.0117 26042.3 -03434.1 -07.5120 26267.7
 11 04 2013  09 30  -21.0114 26042.2 -03434.1 -07.5120 26267.6
 11 04 2013  09 31  -21.0114 26042.2 -03434.2 -07.5123 26267.7
 11 04 2013  09 32  -21.0117 26042.4 -03434.3 -07.5125 26267.8
 11 04 2013  09 33  -21.0123 26042.7 -03434.5 -07.5128 26268.2
 11 04 2013  09 34  -21.0129 26042.9 -03434.6 -07.5130 26268.4
 11 04 2013  09 35  -21.0126 26043.0 -03434.7 -07.5131 26268.6
 11 04 2013  09 36  -21.0122 26043.2 -03434.7 -07.5132 26268.7
 11 04 2013  09 37  -21.0117 26043.4 -03434.8 -07.5133 26268.9
 11 04 2013  09 38  -21.0112 26043.6 -03434.9 -07.5134 26269.2
 11 04 2013  09 39  -21.0115 26043.7 -03434.9 -07.5134 26269.2
 11 04 2013  09 40  -21.0120 26043.6 -03434.9 -07.5135 26269.2
 11 04 2013  09 41  -21.0131 26043.6 -03435.0 -07.5135 26269.1
 11 04 2013  09 42  -21.0139 26043.6 -03435.0 -07.5136 26269.1
 11 04 2013  09 43  -21.0145 26043.7 -03435.1 -07.5138 26269.3
 11 04 2013  09 44  -21.0145 26043.7 -03435.1 -07.5139 26269.3
 11 04 2013  09 45  -21.0144 26043.9 -03435.3 -07.5141 26269.5
 11 04 2013  09 46  -21.0145 26044.0 -03435.3 -07.5141 26269.6
 11 04 2013  09 47  -21.0149 26044.2 -03435.4 -07.5143 26269.8
 11 04 2013  09 48  -21.0149 26044.2 -03435.4 -07.5144 26269.8
 11 04 2013  09 49  -21.0147 26044.4 -03435.6 -07.5146 26270.0
 11 04 2013  09 50  -21.0153 26044.7 -03435.7 -07.5149 26270.3
 11 04 2013  09 51  -21.0161 26045.2 -03436.0 -07.5153 26270.9
 11 04 2013  09 52  -21.0166 26045.2 -03436.0 -07.5153 26270.9
 11 04 2013  09 53  -21.0174 26045.5 -03436.1 -07.5154 26271.2
 11 04 2013  09 54  -21.0189 26045.4 -03436.0 -07.5152 26271.1
 11 04 2013  09 55  -21.0196 26045.7 -03436.0 -07.5152 26271.4
 11 04 2013  09 56  -21.0200 26045.9 -03436.0 -07.5151 26271.6
 11 04 2013  09 57  -21.0203 26046.3 -03436.0 -07.5150 26271.9
 11 04 2013  09 58  -21.0205 26046.7 -03436.1 -07.5151 26272.4
 11 04 2013  09 59  -21.0205 26047.0 -03436.2 -07.5152 26272.7
 11 04 2013  10 00  -21.0202 26047.3 -03436.3 -07.5153 26273.0
 11 04 2013  10 01  -21.0203 26047.3 -03436.3 -07.5154 26273.0
 11 04 2013  10 02  -21.0198 26047.9 -03436.6 -07.5158 26273.6
 11 04 2013  10 03  -21.0195 26048.1 -03436.6 -07.5158 26273.8
 11 04 2013  10 04  -21.0202 26048.4 -03436.7 -07.5159 26274.1
 11 04 2013  10 05  -21.0203 26048.3 -03436.6 -07.5157 26274.0
 11 04 2013  10 06  -21.0211 26048.4 -03436.6 -07.5157 26274.1
 11 04 2013  10 07  -21.0220 26048.6 -03436.6 -07.5157 26274.3
 11 04 2013  10 08  -21.0221 26048.7 -03436.6 -07.5157 26274.4
 11 04 2013  10 09  -21.0243 26048.5 -03436.5 -07.5155 26274.2
 11 04 2013  10 10  -21.0262 26048.7 -03436.8 -07.5159 26274.5
 11 04 2013  10 11  -21.0261 26049.8 -03437.4 -07.5169 26275.6
 11 04 2013  10 12  -21.0262 26050.0 -03437.3 -07.5168 26275.8
 11 04 2013  10 13  -21.0253 26050.5 -03437.3 -07.5167 26276.3
 11 04 2013  10 14  -21.0259 26050.7 -03437.2 -07.5163 26276.5
 11 04 2013  10 15  -21.0281 26050.6 -03437.0 -07.5159 26276.3
 11 04 2013  10 16  -21.0291 26050.3 -03436.5 -07.5150 26276.0
 11 04 2013  10 17  -21.0291 26051.0 -03436.6 -07.5149 26276.7
 11 04 2013  10 18  -21.0288 26051.3 -03436.5 -07.5147 26277.0
 11 04 2013  10 19  -21.0287 26052.1 -03436.7 -07.5148 26277.8
 11 04 2013  10 20  -21.0288 26052.3 -03436.5 -07.5144 26278.0
 11 04 2013  10 21  -21.0301 26052.5 -03436.4 -07.5142 26278.1
 11 04 2013  10 22  -21.0310 26052.6 -03436.4 -07.5141 26278.3
 11 04 2013  10 23  -21.0317 26053.4 -03436.7 -07.5144 26279.1
 11 04 2013  10 24  -21.0323 26054.0 -03436.8 -07.5146 26279.7
 11 04 2013  10 25  -21.0332 26054.4 -03436.8 -07.5144 26280.1
 11 04 2013  10 26  -21.0342 26054.4 -03436.6 -07.5140 26280.1
 11 04 2013  10 27  -21.0358 26054.0 -03436.2 -07.5133 26279.6
 11 04 2013  10 28  -21.0367 26054.5 -03436.2 -07.5132 26280.1
 11 04 2013  10 29  -21.0383 26053.9 -03435.9 -07.5125 26279.5
 11 04 2013  10 30  -21.0398 26054.2 -03435.8 -07.5123 26279.7
 11 04 2013  10 31  -21.0406 26054.4 -03435.7 -07.5121 26280.0
 11 04 2013  10 32  -21.0420 26054.2 -03435.5 -07.5117 26279.8
 11 04 2013  10 33  -21.0434 26054.5 -03435.6 -07.5117 26280.1
 11 04 2013  10 34  -21.0439 26055.4 -03435.8 -07.5120 26280.9
 11 04 2013  10 35  -21.0439 26055.5 -03435.7 -07.5117 26281.0
 11 04 2013  10 36  -21.0431 26056.3 -03435.8 -07.5117 26281.8
 11 04 2013  10 37  -21.0430 26056.8 -03435.8 -07.5115 26282.3
 11 04 2013  10 38  -21.0439 26056.8 -03435.4 -07.5108 26282.3
 11 04 2013  10 39  -21.0441 26057.2 -03435.4 -07.5105 26282.7
 11 04 2013  10 40  -21.0454 26057.0 -03435.0 -07.5099 26282.5
 11 04 2013  10 41  -21.0464 26057.2 -03434.9 -07.5096 26282.6
 11 04 2013  10 42  -21.0474 26057.3 -03434.9 -07.5094 26282.7
 11 04 2013  10 43  -21.0483 26057.9 -03435.0 -07.5095 26283.3
 11 04 2013  10 44  -21.0486 26058.5 -03435.1 -07.5095 26283.9
 11 04 2013  10 45  -21.0494 26058.9 -03435.1 -07.5094 26284.3
 11 04 2013  10 46  -21.0501 26059.3 -03435.0 -07.5091 26284.7
 11 04 2013  10 47  -21.0503 26059.4 -03434.7 -07.5084 26284.7
 11 04 2013  10 48  -21.0502 26059.8 -03434.6 -07.5080 26285.2
 11 04 2013  10 49  -21.0504 26060.0 -03434.4 -07.5075 26285.4
 11 04 2013  10 50  -21.0509 26060.0 -03434.1 -07.5069 26285.3
 11 04 2013  10 51  -21.0515 26060.3 -03434.0 -07.5066 26285.5
 11 04 2013  10 52  -21.0524 26060.3 -03433.8 -07.5062 26285.5
 11 04 2013  10 53  -21.0532 26060.1 -03433.5 -07.5057 26285.4
 11 04 2013  10 54  -21.0534 26060.6 -03433.5 -07.5055 26285.8
 11 04 2013  10 55  -21.0538 26060.7 -03433.3 -07.5050 26285.9
 11 04 2013  10 56  -21.0544 26061.1 -03433.2 -07.5047 26286.3
 11 04 2013  10 57  -21.0545 26061.5 -03433.1 -07.5043 26286.6
 11 04 2013  10 58  -21.0546 26061.9 -03432.9 -07.5039 26287.0
 11 04 2013  10 59  -21.0548 26062.2 -03432.8 -07.5035 26287.3
 11 04 2013  11 00  -21.0546 26063.0 -03432.9 -07.5034 26288.1
 11 04 2013  11 01  -21.0548 26063.4 -03432.7 -07.5030 26288.5
 11 04 2013  11 02  -21.0550 26063.6 -03432.5 -07.5025 26288.7
 11 04 2013  11 03  -21.0547 26064.0 -03432.4 -07.5021 26289.1
 11 04 2013  11 04  -21.0548 26064.7 -03432.4 -07.5019 26289.7
 11 04 2013  11 05  -21.0558 26064.9 -03432.3 -07.5016 26289.9
 11 04 2013  11 06  -21.0565 26065.0 -03432.0 -07.5010 26290.0
 11 04 2013  11 07  -21.0567 26065.5 -03431.9 -07.5007 26290.4
 11 04 2013  11 08  -21.0568 26065.9 -03431.8 -07.5004 26290.8
 11 04 2013  11 09  -21.0571 26065.8 -03431.6 -07.4998 26290.7
 11 04 2013  11 10  -21.0576 26066.1 -03431.5 -07.4996 26291.0
 11 04 2013  11 11  -21.0583 26066.4 -03431.5 -07.4995 26291.3
 11 04 2013  11 12  -21.0584 26067.0 -03431.5 -07.4993 26291.9
 11 04 2013  11 13  -21.0584 26067.7 -03431.5 -07.4992 26292.6
 11 04 2013  11 14  -21.0588 26068.2 -03431.4 -07.4988 26293.1
 11 04 2013  11 15  -21.0588 26068.7 -03431.3 -07.4984 26293.6
 11 04 2013  11 16  -21.0584 26069.4 -03431.2 -07.4980 26294.3
 11 04 2013  11 17  -21.0584 26069.9 -03431.0 -07.4974 26294.7
 11 04 2013  11 18  -21.0590 26070.4 -03430.9 -07.4971 26295.2
 11 04 2013  11 19  -21.0592 26071.2 -03431.0 -07.4970 26296.0
 11 04 2013  11 20  -21.0595 26071.6 -03430.8 -07.4966 26296.4
 11 04 2013  11 21  -21.0594 26072.2 -03430.7 -07.4962 26296.9
 11 04 2013  11 22  -21.0590 26072.7 -03430.6 -07.4959 26297.4
 11 04 2013  11 23  -21.0585 26073.1 -03430.5 -07.4954 26297.8
 11 04 2013  11 24  -21.0583 26072.7 -03430.0 -07.4945 26297.4
 11 04 2013  11 25  -21.0586 26072.6 -03429.7 -07.4938 26297.2
 11 04 2013  11 26  -21.0590 26072.2 -03429.3 -07.4932 26296.8
 11 04 2013  11 27  -21.0591 26072.4 -03429.3 -07.4930 26297.0
 11 04 2013  11 28  -21.0593 26072.1 -03429.0 -07.4926 26296.6
 11 04 2013  11 29  -21.0597 26072.0 -03429.0 -07.4925 26296.5
 11 04 2013  11 30  -21.0601 26072.2 -03429.1 -07.4927 26296.7
 11 04 2013  11 31  -21.0600 26072.1 -03429.0 -07.4925 26296.6
 11 04 2013  11 32  -21.0603 26072.2 -03429.0 -07.4925 26296.8
 11 04 2013  11 33  -21.0604 26072.4 -03429.0 -07.4925 26296.9
 11 04 2013  11 34  -21.0606 26072.5 -03429.0 -07.4923 26297.0
 11 04 2013  11 35  -21.0602 26073.4 -03429.2 -07.4926 26297.9
 11 04 2013  11 36  -21.0599 26073.8 -03429.2 -07.4924 26298.3
 11 04 2013  11 37  -21.0593 26074.1 -03429.0 -07.4919 26298.6
 11 04 2013  11 38  -21.0589 26074.4 -03428.9 -07.4917 26298.9
 11 04 2013  11 39  -21.0585 26074.8 -03428.9 -07.4915 26299.3
 11 04 2013  11 40  -21.0580 26075.1 -03428.8 -07.4912 26299.6
 11 04 2013  11 41  -21.0578 26075.1 -03428.6 -07.4909 26299.6
 11 04 2013  11 42  -21.0578 26075.6 -03428.7 -07.4908 26300.0
 11 04 2013  11 43  -21.0579 26076.2 -03428.7 -07.4908 26300.6
 11 04 2013  11 44  -21.0577 26076.8 -03428.8 -07.4907 26301.3
 11 04 2013  11 45  -21.0578 26077.0 -03428.7 -07.4904 26301.5
 11 04 2013  11 46  -21.0578 26077.3 -03428.6 -07.4901 26301.8
 11 04 2013  11 47  -21.0576 26077.9 -03428.5 -07.4899 26302.3
 11 04 2013  11 48  -21.0577 26078.5 -03428.5 -07.4896 26302.9
 11 04 2013  11 49  -21.0579 26078.9 -03428.4 -07.4892 26303.3
 11 04 2013  11 50  -21.0581 26079.3 -03428.3 -07.4889 26303.7
 11 04 2013  11 51  -21.0583 26079.8 -03428.2 -07.4886 26304.2
 11 04 2013  11 52  -21.0585 26080.8 -03428.3 -07.4885 26305.1
 11 04 2013  11 53  -21.0588 26081.2 -03428.1 -07.4881 26305.6
 11 04 2013  11 54  -21.0585 26081.8 -03428.0 -07.4876 26306.1
 11 04 2013  11 55  -21.0586 26082.1 -03427.8 -07.4871 26306.4
 11 04 2013  11 56  -21.0589 26082.6 -03427.7 -07.4867 26306.9
 11 04 2013  11 57  -21.0589 26083.1 -03427.6 -07.4863 26307.3
 11 04 2013  11 58  -21.0589 26083.5 -03427.4 -07.4859 26307.7
 11 04 2013  11 59  -21.0589 26083.7 -03427.1 -07.4852 26307.9
 11 04 2013  12 00  -21.0592 26083.9 -03426.9 -07.4846 26308.0
 11 04 2013  12 01  -21.0596 26084.4 -03426.8 -07.4843 26308.6
 11 04 2013  12 02  -21.0598 26084.7 -03426.6 -07.4838 26308.8
 11 04 2013  12 03  -21.0596 26085.2 -03426.4 -07.4833 26309.2
 11 04 2013  12 04  -21.0598 26085.6 -03426.2 -07.4828 26309.6
 11 04 2013  12 05  -21.0601 26086.0 -03426.1 -07.4823 26310.1
 11 04 2013  12 06  -21.0600 26086.7 -03425.9 -07.4817 26310.7
 11 04 2013  12 07  -21.0596 26087.3 -03425.6 -07.4809 26311.2
 11 04 2013  12 08  -21.0596 26087.8 -03425.4 -07.4803 26311.7
 11 04 2013  12 09  -21.0593 26088.0 -03425.0 -07.4793 26311.8
 11 04 2013  12 10  -21.0596 26088.0 -03424.5 -07.4783 26311.8
 11 04 2013  12 11  -21.0597 26088.3 -03424.2 -07.4776 26312.1
 11 04 2013  12 12  -21.0596 26089.0 -03424.1 -07.4771 26312.7
 11 04 2013  12 13  -21.0598 26089.6 -03423.9 -07.4766 26313.4
 11 04 2013  12 14  -21.0597 26090.0 -03423.6 -07.4757 26313.7
 11 04 2013  12 15  -21.0597 26090.4 -03423.3 -07.4749 26314.1
 11 04 2013  12 16  -21.0596 26091.1 -03423.0 -07.4742 26314.7
 11 04 2013  12 17  -21.0597 26091.9 -03422.8 -07.4734 26315.5
 11 04 2013  12 18  -21.0595 26092.3 -03422.4 -07.4724 26315.8
 11 04 2013  12 19  -21.0593 26093.0 -03422.1 -07.4717 26316.4
 11 04 2013  12 20  -21.0588 26093.7 -03421.9 -07.4710 26317.1
 11 04 2013  12 21  -21.0585 26094.0 -03421.4 -07.4699 26317.3
 11 04 2013  12 22  -21.0589 26094.2 -03420.9 -07.4689 26317.4
 11 04 2013  12 23  -21.0596 26094.4 -03420.5 -07.4679 26317.6
 11 04 2013  12 24  -21.0599 26094.4 -03420.1 -07.4669 26317.6
 11 04 2013  12 25  -21.0597 26094.6 -03419.6 -07.4659 26317.7
 11 04 2013  12 26  -21.0592 26094.6 -03419.2 -07.4650 26317.7
 11 04 2013  12 27  -21.0586 26095.0 -03418.9 -07.4642 26318.0
 11 04 2013  12 28  -21.0582 26095.8 -03418.8 -07.4637 26318.8
 11 04 2013  12 29  -21.0582 26096.4 -03418.5 -07.4630 26319.3
 11 04 2013  12 30  -21.0579 26096.5 -03418.0 -07.4619 26319.3
 11 04 2013  12 31  -21.0574 26096.4 -03417.5 -07.4607 26319.2
 11 04 2013  12 32  -21.0569 26096.8 -03417.2 -07.4600 26319.6
 11 04 2013  12 33  -21.0567 26097.5 -03417.0 -07.4595 26320.3
 11 04 2013  12 34  -21.0567 26097.9 -03416.7 -07.4587 26320.6
 11 04 2013  12 35  -21.0567 26098.6 -03416.5 -07.4581 26321.3
 11 04 2013  12 36  -21.0567 26099.3 -03416.3 -07.4573 26321.9
 11 04 2013  12 37  -21.0563 26099.6 -03415.8 -07.4563 26322.2
 11 04 2013  12 38  -21.0560 26100.0 -03415.5 -07.4555 26322.6
 11 04 2013  12 39  -21.0562 26100.3 -03415.2 -07.4548 26322.8
 11 04 2013  12 40  -21.0565 26100.3 -03414.9 -07.4540 26322.7
 11 04 2013  12 41  -21.0565 26099.8 -03414.3 -07.4528 26322.2
 11 04 2013  12 42  -21.0570 26099.8 -03413.9 -07.4521 26322.1
 11 04 2013  12 43  -21.0572 26099.9 -03413.7 -07.4516 26322.2
 11 04 2013  12 44  -21.0575 26099.8 -03413.4 -07.4510 26322.0
 11 04 2013  12 45  -21.0578 26099.7 -03413.1 -07.4505 26321.9
 11 04 2013  12 46  -21.0579 26099.5 -03412.9 -07.4500 26321.7
 11 04 2013  12 47  -21.0578 26099.6 -03412.7 -07.4496 26321.8
 11 04 2013  12 48  -21.0582 26099.9 -03412.7 -07.4494 26322.1
 11 04 2013  12 49  -21.0585 26100.6 -03412.7 -07.4492 26322.8
 11 04 2013  12 50  -21.0590 26101.1 -03412.6 -07.4489 26323.2
 11 04 2013  12 51  -21.0592 26101.1 -03412.3 -07.4482 26323.2
 11 04 2013  12 52  -21.0594 26101.1 -03412.0 -07.4476 26323.1
 11 04 2013  12 53  -21.0592 26101.0 -03411.7 -07.4471 26323.0
 11 04 2013  12 54  -21.0589 26100.9 -03411.5 -07.4465 26322.9
 11 04 2013  12 55  -21.0591 26101.3 -03411.4 -07.4462 26323.3
 11 04 2013  12 56  -21.0589 26102.1 -03411.4 -07.4460 26324.1
 11 04 2013  12 57  -21.0584 26102.9 -03411.3 -07.4455 26324.9
 11 04 2013  12 58  -21.0576 26103.4 -03411.0 -07.4448 26325.3
 11 04 2013  12 59  -21.0570 26103.6 -03410.7 -07.4440 26325.5
 11 04 2013  13 00  -21.0567 26103.9 -03410.4 -07.4434 26325.8
 11 04 2013  13 01  -21.0561 26104.4 -03410.2 -07.4428 26326.2
 11 04 2013  13 02  -21.0556 26104.4 -03409.8 -07.4419 26326.2
 11 04 2013  13 03  -21.0553 26104.6 -03409.6 -07.4413 26326.3
 11 04 2013  13 04  -21.0552 26104.7 -03409.3 -07.4407 26326.3
 11 04 2013  13 05  -21.0552 26105.0 -03409.1 -07.4403 26326.6
 11 04 2013  13 06  -21.0552 26105.3 -03409.0 -07.4399 26327.0
 11 04 2013  13 07  -21.0555 26105.9 -03408.9 -07.4395 26327.6
 11 04 2013  13 08  -21.0561 26106.4 -03408.7 -07.4390 26328.0
 11 04 2013  13 09  -21.0563 26106.6 -03408.3 -07.4381 26328.2
 11 04 2013  13 10  -21.0565 26107.1 -03408.1 -07.4375 26328.7
 11 04 2013  13 11  -21.0559 26107.5 -03407.8 -07.4368 26329.0
 11 04 2013  13 12  -21.0550 26107.8 -03407.6 -07.4361 26329.2
 11 04 2013  13 13  -21.0543 26107.6 -03407.2 -07.4354 26329.0
 11 04 2013  13 14  -21.0533 26106.7 -03406.6 -07.4344 26328.1
 11 04 2013  13 15  -21.0527 26106.6 -03406.5 -07.4341 26327.9
 11 04 2013  13 16  -21.0524 26107.0 -03406.5 -07.4341 26328.3
 11 04 2013  13 17  -21.0523 26107.0 -03406.4 -07.4339 26328.3
 11 04 2013  13 18  -21.0519 26107.5 -03406.5 -07.4338 26328.7
 11 04 2013  13 19  -21.0517 26107.6 -03406.4 -07.4337 26328.8
 11 04 2013  13 20  -21.0510 26107.7 -03406.3 -07.4335 26329.0
 11 04 2013  13 21  -21.0504 26107.7 -03406.3 -07.4334 26329.0
 11 04 2013  13 22  -21.0501 26107.8 -03406.4 -07.4336 26329.1
 11 04 2013  13 23  -21.0500 26107.9 -03406.4 -07.4336 26329.2
 11 04 2013  13 24  -21.0499 26107.8 -03406.4 -07.4337 26329.1
 11 04 2013  13 25  -21.0505 26107.8 -03406.5 -07.4338 26329.0
 11 04 2013  13 26  -21.0507 26107.8 -03406.4 -07.4336 26329.1
 11 04 2013  13 27  -21.0506 26108.0 -03406.3 -07.4334 26329.2
 11 04 2013  13 28  -21.0504 26108.7 -03406.6 -07.4337 26330.0
 11 04 2013  13 29  -21.0498 26109.0 -03406.5 -07.4336 26330.3
 11 04 2013  13 30  -21.0487 26108.9 -03406.5 -07.4335 26330.2
 11 04 2013  13 31  -21.0478 26109.3 -03406.7 -07.4338 26330.6
 11 04 2013  13 32  -21.0475 26109.9 -03407.0 -07.4343 26331.2
 11 04 2013  13 33  -21.0476 26110.6 -03407.2 -07.4346 26332.0
 11 04 2013  13 34  -21.0476 26111.3 -03407.4 -07.4349 26332.7
 11 04 2013  13 35  -21.0477 26112.3 -03407.6 -07.4350 26333.7
 11 04 2013  13 36  -21.0481 26113.1 -03407.7 -07.4348 26334.5
 11 04 2013  13 37  -21.0488 26113.7 -03407.5 -07.4344 26335.0
 11 04 2013  13 38  -21.0472 26113.9 -03407.2 -07.4337 26335.2
 11 04 2013  13 39  -21.0471 26113.3 -03406.7 -07.4328 26334.5
 11 04 2013  13 40  -21.0464 26112.7 -03406.3 -07.4321 26334.0
 11 04 2013  13 41  -21.0467 26112.9 -03406.5 -07.4323 26334.2
 11 04 2013  13 42  -21.0469 26113.4 -03406.6 -07.4325 26334.6
 11 04 2013  13 43  -21.0466 26113.4 -03406.5 -07.4323 26334.7
 11 04 2013  13 44  -21.0463 26113.3 -03406.5 -07.4322 26334.6
 11 04 2013  13 45  -21.0466 26113.8 -03406.7 -07.4325 26335.1
 11 04 2013  13 46  -21.0464 26114.3 -03406.8 -07.4326 26335.5
 11 04 2013  13 47  -21.0459 26114.5 -03406.7 -07.4324 26335.8
 11 04 2013  13 48  -21.0458 26114.7 -03406.7 -07.4324 26336.0
 11 04 2013  13 49  -21.0458 26115.2 -03406.8 -07.4324 26336.4
 11 04 2013  13 50  -21.0458 26115.6 -03406.7 -07.4321 26336.9
 11 04 2013  13 51  -21.0455 26116.1 -03406.7 -07.4320 26337.3
 11 04 2013  13 52  -21.0456 26116.5 -03406.7 -07.4318 26337.8
 11 04 2013  13 53  -21.0452 26116.7 -03406.5 -07.4313 26337.9
 11 04 2013  13 54  -21.0446 26116.6 -03406.3 -07.4308 26337.8
 11 04 2013  13 55  -21.0448 26116.3 -03406.0 -07.4305 26337.5
 11 04 2013  13 56  -21.0447 26116.5 -03406.0 -07.4303 26337.7
 11 04 2013  13 57  -21.0446 26116.4 -03405.8 -07.4299 26337.5
 11 04 2013  13 58  -21.0443 26116.1 -03405.5 -07.4293 26337.2
 11 04 2013  13 59  -21.0438 26115.6 -03405.2 -07.4288 26336.6
 11 04 2013  14 00  -21.0431 26114.6 -03404.8 -07.4281 26335.6
 11 04 2013  14 01  -21.0434 26114.0 -03404.6 -07.4281 26335.1
 11 04 2013  14 02  -21.0430 26114.0 -03404.7 -07.4282 26335.0
 11 04 2013  14 03  -21.0439 26113.9 -03404.7 -07.4283 26334.9
 11 04 2013  14 04  -21.0425 26113.1 -03404.4 -07.4278 26334.0
 11 04 2013  14 05  -21.0403 26111.6 -03403.9 -07.4271 26332.5
 11 04 2013  14 06  -21.0392 26110.6 -03403.9 -07.4274 26331.6
 11 04 2013  14 07  -21.0388 26110.1 -03404.2 -07.4281 26331.1
 11 04 2013  14 08  -21.0382 26110.3 -03404.6 -07.4291 26331.3
 11 04 2013  14 09  -21.0382 26110.6 -03405.0 -07.4299 26331.7
 11 04 2013  14 10  -21.0380 26110.9 -03405.4 -07.4306 26332.0
 11 04 2013  14 11  -21.0378 26111.4 -03405.7 -07.4310 26332.5
 11 04 2013  14 12  -21.0367 26112.4 -03406.0 -07.4315 26333.6
 11 04 2013  14 13  -21.0351 26112.7 -03405.9 -07.4312 26333.9
 11 04 2013  14 14  -21.0335 26112.2 -03405.6 -07.4307 26333.3
 11 04 2013  14 15  -21.0323 26111.6 -03405.4 -07.4304 26332.8
 11 04 2013  14 16  -21.0316 26111.3 -03405.4 -07.4305 26332.4
 11 04 2013  14 17  -21.0311 26110.8 -03405.4 -07.4306 26331.9
 11 04 2013  14 18  -21.0301 26110.7 -03405.5 -07.4308 26331.8
 11 04 2013  14 19  -21.0295 26110.2 -03405.5 -07.4310 26331.3
 11 04 2013  14 20  -21.0284 26109.6 -03405.5 -07.4312 26330.8
 11 04 2013  14 21  -21.0275 26109.5 -03405.8 -07.4318 26330.7
 11 04 2013  14 22  -21.0269 26109.4 -03406.0 -07.4324 26330.6
 11 04 2013  14 23  -21.0263 26109.6 -03406.4 -07.4330 26330.8
 11 04 2013  14 24  -21.0255 26109.4 -03406.6 -07.4336 26330.7
 11 04 2013  14 25  -21.0246 26108.8 -03406.7 -07.4340 26330.1
 11 04 2013  14 26  -21.0239 26108.7 -03407.0 -07.4346 26330.0
 11 04 2013  14 27  -21.0239 26109.4 -03407.6 -07.4357 26330.8
 11 04 2013  14 28  -21.0240 26109.9 -03407.9 -07.4364 26331.4
 11 04 2013  14 29  -21.0237 26110.1 -03408.1 -07.4367 26331.6
 11 04 2013  14 30  -21.0236 26110.4 -03408.4 -07.4372 26331.9
 11 04 2013  14 31  -21.0228 26110.2 -03408.5 -07.4374 26331.7
 11 04 2013  14 32  -21.0224 26110.4 -03408.7 -07.4379 26332.0
 11 04 2013  14 33  -21.0219 26110.4 -03408.8 -07.4381 26332.0
 11 04 2013  14 34  -21.0219 26110.5 -03409.0 -07.4385 26332.1
 11 04 2013  14 35  -21.0214 26110.4 -03409.2 -07.4389 26332.0
 11 04 2013  14 36  -21.0210 26110.6 -03409.5 -07.4396 26332.2
 11 04 2013  14 37  -21.0212 26111.6 -03410.2 -07.4407 26333.4
 11 04 2013  14 38  -21.0212 26111.8 -03410.3 -07.4408 26333.6
 11 04 2013  14 39  -21.0211 26111.5 -03410.0 -07.4404 26333.3
 11 04 2013  14 40  -21.0207 26110.5 -03409.5 -07.4397 26332.2
 11 04 2013  14 41  -21.0198 26109.3 -03409.3 -07.4395 26331.0
 11 04 2013  14 42  -21.0191 26108.4 -03409.4 -07.4399 26330.1
 11 04 2013  14 43  -21.0185 26108.4 -03409.9 -07.4410 26330.1
 11 04 2013  14 44  -21.0184 26108.1 -03410.3 -07.4420 26329.9
 11 04 2013  14 45  -21.0184 26108.3 -03410.8 -07.4430 26330.1
 11 04 2013  14 46  -21.0186 26108.6 -03411.2 -07.4438 26330.5
 11 04 2013  14 47  -21.0191 26108.9 -03411.7 -07.4447 26330.9
 11 04 2013  14 48  -21.0197 26108.8 -03411.7 -07.4449 26330.7
 11 04 2013  14 49  -21.0186 26107.7 -03411.4 -07.4445 26329.6
 11 04 2013  14 50  -21.0176 26106.7 -03411.4 -07.4448 26328.6
 11 04 2013  14 51  -21.0178 26105.9 -03411.5 -07.4452 26327.8
 11 04 2013  14 52  -21.0176 26105.1 -03411.6 -07.4456 26327.1
 11 04 2013  14 53  -21.0170 26104.4 -03411.7 -07.4461 26326.4
 11 04 2013  14 54  -21.0166 26103.4 -03411.8 -07.4466 26325.5
 11 04 2013  14 55  -21.0166 26103.4 -03412.3 -07.4477 26325.5
 11 04 2013  14 56  -21.0164 26102.8 -03412.6 -07.4483 26324.9
 11 04 2013  14 57  -21.0164 26102.5 -03412.9 -07.4492 26324.7
 11 04 2013  14 58  -21.0170 26102.3 -03413.3 -07.4500 26324.5
 11 04 2013  14 59  -21.0172 26102.0 -03413.5 -07.4507 26324.3
 11 04 2013  15 00  -21.0166 26101.3 -03413.6 -07.4510 26323.6
 11 04 2013  15 01  -21.0161 26100.6 -03413.7 -07.4513 26322.9
 11 04 2013  15 02  -21.0163 26100.5 -03414.0 -07.4520 26322.8
 11 04 2013  15 03  -21.0167 26100.0 -03414.1 -07.4524 26322.4
 11 04 2013  15 04  -21.0162 26099.0 -03414.0 -07.4526 26321.4
 11 04 2013  15 05  -21.0157 26098.1 -03414.1 -07.4530 26320.5
 11 04 2013  15 06  -21.0155 26097.6 -03414.4 -07.4537 26320.0
 11 04 2013  15 07  -21.0155 26097.5 -03414.8 -07.4546 26319.9
 11 04 2013  15 08  -21.0157 26097.2 -03415.1 -07.4554 26319.7
 11 04 2013  15 09  -21.0160 26097.2 -03415.5 -07.4562 26319.8
 11 04 2013  15 10  -21.0157 26097.0 -03415.7 -07.4568 26319.5
 11 04 2013  15 11  -21.0154 26096.5 -03415.9 -07.4573 26319.1
 11 04 2013  15 12  -21.0151 26096.0 -03416.1 -07.4579 26318.7
 11 04 2013  15 13  -21.0150 26095.9 -03416.4 -07.4587 26318.6
 11 04 2013  15 14  -21.0147 26096.0 -03416.9 -07.4595 26318.8
 11 04 2013  15 15  -21.0145 26095.9 -03417.2 -07.4602 26318.7
 11 04 2013  15 16  -21.0144 26095.5 -03417.3 -07.4607 26318.4
 11 04 2013  15 17  -21.0145 26095.5 -03417.6 -07.4614 26318.4
 11 04 2013  15 18  -21.0142 26095.7 -03418.0 -07.4620 26318.6
 11 04 2013  15 19  -21.0134 26095.3 -03418.0 -07.4622 26318.1
 11 04 2013  15 20  -21.0124 26094.5 -03418.0 -07.4623 26317.4
 11 04 2013  15 21  -21.0117 26094.0 -03418.1 -07.4628 26316.9
 11 04 2013  15 22  -21.0110 26093.8 -03418.4 -07.4635 26316.8
 11 04 2013  15 23  -21.0107 26094.0 -03418.9 -07.4644 26317.0
 11 04 2013  15 24  -21.0108 26094.3 -03419.2 -07.4651 26317.4
 11 04 2013  15 25  -21.0103 26094.0 -03419.1 -07.4650 26317.0
 11 04 2013  15 26  -21.0093 26093.3 -03418.9 -07.4647 26316.3
 11 04 2013  15 27  -21.0087 26092.6 -03418.8 -07.4646 26315.6
 11 04 2013  15 28  -21.0084 26092.1 -03418.7 -07.4647 26315.1
 11 04 2013  15 29  -21.0075 26091.2 -03418.7 -07.4648 26314.2
 11 04 2013  15 30  -21.0064 26090.2 -03418.7 -07.4652 26313.2
 11 04 2013  15 31  -21.0060 26089.5 -03419.0 -07.4661 26312.6
 11 04 2013  15 32  -21.0060 26089.1 -03419.4 -07.4670 26312.2
 11 04 2013  15 33  -21.0060 26088.4 -03419.7 -07.4677 26311.6
 11 04 2013  15 34  -21.0060 26088.3 -03420.1 -07.4686 26311.5
 11 04 2013  15 35  -21.0060 26088.3 -03420.6 -07.4698 26311.6
 11 04 2013  15 36  -21.0057 26087.9 -03421.0 -07.4707 26311.3
 11 04 2013  15 37  -21.0055 26088.3 -03421.7 -07.4722 26311.7
 11 04 2013  15 38  -21.0064 26089.1 -03422.5 -07.4738 26312.6
 11 04 2013  15 39  -21.0071 26089.5 -03422.9 -07.4745 26313.1
 11 04 2013  15 40  -21.0078 26089.8 -03423.2 -07.4749 26313.4
 11 04 2013  15 41  -21.0080 26089.0 -03423.0 -07.4747 26312.6
 11 04 2013  15 42  -21.0078 26088.0 -03422.7 -07.4745 26311.6
 11 04 2013  15 43  -21.0079 26086.8 -03422.6 -07.4745 26310.3
 11 04 2013  15 44  -21.0077 26085.9 -03422.6 -07.4748 26309.5
 11 04 2013  15 45  -21.0082 26085.7 -03423.0 -07.4756 26309.3
 11 04 2013  15 46  -21.0083 26085.8 -03423.3 -07.4764 26309.5
 11 04 2013  15 47  -21.0078 26085.4 -03423.5 -07.4768 26309.1
 11 04 2013  15 48  -21.0074 26084.5 -03423.4 -07.4770 26308.2
 11 04 2013  15 49  -21.0081 26084.9 -03424.0 -07.4780 26308.7
 11 04 2013  15 50  -21.0091 26085.6 -03424.5 -07.4789 26309.4
 11 04 2013  15 51  -21.0096 26085.6 -03424.5 -07.4790 26309.4
 11 04 2013  15 52  -21.0091 26084.7 -03424.2 -07.4786 26308.5
 11 04 2013  15 53  -21.0091 26084.5 -03424.4 -07.4791 26308.3
 11 04 2013  15 54  -21.0094 26083.8 -03424.4 -07.4793 26307.7
 11 04 2013  15 55  -21.0085 26083.3 -03424.5 -07.4797 26307.1
 11 04 2013  15 56  -21.0097 26082.9 -03424.9 -07.4806 26306.8
 11 04 2013  15 57  -21.0098 26082.5 -03425.0 -07.4809 26306.4
 11 04 2013  15 58  -21.0100 26082.2 -03425.2 -07.4814 26306.2
 11 04 2013  15 59  -21.0105 26082.5 -03425.6 -07.4822 26306.5
 11 04 2013  16 00  -21.0101 26081.8 -03425.6 -07.4823 26305.8
 11 04 2013  16 01  -21.0104 26081.7 -03425.9 -07.4830 26305.8
 11 04 2013  16 02  -21.0108 26081.1 -03425.9 -07.4832 26305.1
 11 04 2013  16 03  -21.0116 26080.9 -03426.2 -07.4840 26305.0
 11 04 2013  16 04  -21.0122 26080.7 -03426.5 -07.4847 26304.8
 11 04 2013  16 05  -21.0133 26081.3 -03427.0 -07.4856 26305.4
 11 04 2013  16 06  -21.0141 26081.7 -03427.2 -07.4859 26305.9
 11 04 2013  16 07  -21.0148 26081.7 -03427.0 -07.4855 26305.9
 11 04 2013  16 08  -21.0150 26080.9 -03426.5 -07.4846 26305.0
 11 04 2013  16 09  -21.0147 26079.7 -03426.0 -07.4838 26303.8
 11 04 2013  16 10  -21.0144 26079.0 -03425.9 -07.4839 26303.0
 11 04 2013  16 11  -21.0145 26078.6 -03426.1 -07.4845 26302.6
 11 04 2013  16 12  -21.0151 26078.2 -03426.4 -07.4851 26302.4
 11 04 2013  16 13  -21.0156 26077.9 -03426.5 -07.4856 26302.0
 11 04 2013  16 14  -21.0164 26077.9 -03426.8 -07.4862 26302.1
 11 04 2013  16 15  -21.0175 26078.1 -03427.1 -07.4868 26302.3
 11 04 2013  16 16  -21.0184 26078.3 -03427.3 -07.4872 26302.6
 11 04 2013  16 17  -21.0197 26078.8 -03427.6 -07.4877 26303.1
 11 04 2013  16 18  -21.0203 26078.7 -03427.5 -07.4873 26303.0
 11 04 2013  16 19  -21.0212 26078.4 -03427.2 -07.4868 26302.6
 11 04 2013  16 20  -21.0219 26077.8 -03426.8 -07.4862 26302.0
 11 04 2013  16 21  -21.0222 26077.0 -03426.5 -07.4858 26301.2
 11 04 2013  16 22  -21.0224 26076.1 -03426.2 -07.4854 26300.2
 11 04 2013  16 23  -21.0229 26075.5 -03426.2 -07.4855 26299.7
 11 04 2013  16 24  -21.0232 26075.2 -03426.3 -07.4858 26299.4
 11 04 2013  16 25  -21.0239 26075.1 -03426.5 -07.4862 26299.3
 11 04 2013  16 26  -21.0244 26074.7 -03426.5 -07.4863 26298.9
 11 04 2013  16 27  -21.0249 26074.4 -03426.5 -07.4864 26298.6
 11 04 2013  16 28  -21.0258 26074.6 -03426.7 -07.4868 26298.8
 11 04 2013  16 29  -21.0268 26074.7 -03426.7 -07.4869 26298.9
 11 04 2013  16 30  -21.0277 26074.3 -03426.6 -07.4867 26298.5
 11 04 2013  16 31  -21.0285 26073.5 -03426.2 -07.4861 26297.6
 11 04 2013  16 32  -21.0287 26072.7 -03425.9 -07.4857 26296.8
 11 04 2013  16 33  -21.0290 26071.9 -03425.7 -07.4856 26296.0
 11 04 2013  16 34  -21.0295 26071.2 -03425.7 -07.4857 26295.3
 11 04 2013  16 35  -21.0301 26070.4 -03425.7 -07.4858 26294.5
 11 04 2013  16 36  -21.0307 26069.7 -03425.7 -07.4860 26293.8
 11 04 2013  16 37  -21.0312 26069.0 -03425.7 -07.4863 26293.2
 11 04 2013  16 38  -21.0320 26069.1 -03426.1 -07.4870 26293.3
 11 04 2013  16 39  -21.0327 26069.0 -03426.1 -07.4871 26293.1
 11 04 2013  16 40  -21.0330 26068.6 -03426.0 -07.4871 26292.8
 11 04 2013  16 41  -21.0336 26068.3 -03426.1 -07.4874 26292.5
 11 04 2013  16 42  -21.0341 26068.1 -03426.2 -07.4875 26292.3
 11 04 2013  16 43  -21.0341 26067.2 -03425.9 -07.4871 26291.4
 11 04 2013  16 44  -21.0337 26067.2 -03426.0 -07.4874 26291.4
 11 04 2013  16 45  -21.0341 26067.3 -03426.2 -07.4879 26291.5
 11 04 2013  16 46  -21.0340 26066.5 -03426.0 -07.4875 26290.7
 11 04 2013  16 47  -21.0345 26067.4 -03426.5 -07.4884 26291.6
 11 04 2013  16 48  -21.0351 26066.8 -03426.3 -07.4883 26291.0
 11 04 2013  16 49  -21.0349 26066.2 -03426.2 -07.4880 26290.4
 11 04 2013  16 50  -21.0354 26066.4 -03426.2 -07.4880 26290.6
 11 04 2013  16 51  -21.0359 26066.3 -03426.0 -07.4878 26290.5
 11 04 2013  16 52  -21.0356 26065.5 -03425.6 -07.4870 26289.6
 11 04 2013  16 53  -21.0352 26064.5 -03425.3 -07.4867 26288.6
 11 04 2013  16 54  -21.0344 26063.4 -03425.1 -07.4866 26287.5
 11 04 2013  16 55  -21.0336 26063.8 -03425.5 -07.4874 26287.9
 11 04 2013  16 56  -21.0349 26064.1 -03425.8 -07.4879 26288.3
 11 04 2013  16 57  -21.0342 26063.6 -03425.5 -07.4874 26287.7
 11 04 2013  16 58  -21.0335 26063.4 -03425.6 -07.4876 26287.5
 11 04 2013  16 59  -21.0338 26064.1 -03426.1 -07.4885 26288.3
 11 04 2013  17 00  -21.0341 26064.4 -03426.2 -07.4886 26288.6
 11 04 2013  17 01  -21.0333 26064.6 -03426.1 -07.4885 26288.8
 11 04 2013  17 02  -21.0331 26064.9 -03426.2 -07.4884 26289.1
 11 04 2013  17 03  -21.0333 26065.3 -03426.1 -07.4883 26289.5
 11 04 2013  17 04  -21.0330 26065.1 -03425.8 -07.4875 26289.3
 11 04 2013  17 05  -21.0321 26064.4 -03425.3 -07.4867 26288.5
 11 04 2013  17 06  -21.0321 26064.3 -03425.3 -07.4868 26288.4
 11 04 2013  17 07  -21.0329 26064.4 -03425.3 -07.4867 26288.5
 11 04 2013  17 08  -21.0329 26063.8 -03424.9 -07.4859 26287.8
 11 04 2013  17 09  -21.0333 26063.8 -03424.8 -07.4858 26287.8
 11 04 2013  17 10  -21.0338 26063.9 -03424.7 -07.4856 26287.9
 11 04 2013  17 11  -21.0334 26063.8 -03424.5 -07.4851 26287.8
 11 04 2013  17 12  -21.0332 26062.9 -03424.0 -07.4842 26286.9
 11 04 2013  17 13  -21.0328 26062.0 -03423.7 -07.4840 26285.9
 11 04 2013  17 14  -21.0326 26060.9 -03423.8 -07.4844 26284.9
 11 04 2013  17 15  -21.0325 26060.2 -03424.2 -07.4855 26284.2
 11 04 2013  17 16  -21.0328 26060.2 -03424.8 -07.4869 26284.3
 11 04 2013  17 17  -21.0329 26060.3 -03425.2 -07.4877 26284.4
 11 04 2013  17 18  -21.0339 26060.7 -03425.5 -07.4883 26284.9
 11 04 2013  17 19  -21.0347 26060.2 -03425.3 -07.4879 26284.3
 11 04 2013  17 20  -21.0354 26059.3 -03424.9 -07.4873 26283.4
 11 04 2013  17 21  -21.0356 26058.3 -03424.5 -07.4867 26282.3
 11 04 2013  17 22  -21.0353 26057.4 -03424.3 -07.4866 26281.4
 11 04 2013  17 23  -21.0350 26056.4 -03424.3 -07.4867 26280.4
 11 04 2013  17 24  -21.0351 26055.1 -03424.3 -07.4871 26279.2
 11 04 2013  17 25  -21.0351 26054.4 -03424.6 -07.4879 26278.5
 11 04 2013  17 26  -21.0356 26054.3 -03425.0 -07.4890 26278.5
 11 04 2013  17 27  -21.0363 26054.1 -03425.3 -07.4896 26278.3
 11 04 2013  17 28  -21.0367 26054.2 -03425.5 -07.4900 26278.4
 11 04 2013  17 29  -21.0373 26054.1 -03425.5 -07.4901 26278.3
 11 04 2013  17 30  -21.0375 26053.8 -03425.4 -07.4899 26278.0
 11 04 2013  17 31  -21.0373 26053.0 -03425.1 -07.4896 26277.2
 11 04 2013  17 32  -21.0371 26051.9 -03424.8 -07.4892 26276.0
 11 04 2013  17 33  -21.0371 26051.1 -03424.8 -07.4893 26275.3
 11 04 2013  17 34  -21.0373 26050.7 -03424.9 -07.4897 26274.9
 11 04 2013  17 35  -21.0376 26050.2 -03424.9 -07.4899 26274.4
 11 04 2013  17 36  -21.0379 26050.1 -03425.2 -07.4905 26274.3
 11 04 2013  17 37  -21.0378 26049.4 -03425.1 -07.4904 26273.6
 11 04 2013  17 38  -21.0377 26049.4 -03425.2 -07.4907 26273.6
 11 04 2013  17 39  -21.0377 26048.9 -03425.1 -07.4907 26273.1
 11 04 2013  17 40  -21.0377 26048.1 -03424.8 -07.4903 26272.2
 11 04 2013  17 41  -21.0375 26047.8 -03424.8 -07.4904 26272.0
 11 04 2013  17 42  -21.0375 26047.3 -03424.8 -07.4904 26271.5
 11 04 2013  17 43  -21.0377 26047.5 -03425.1 -07.4910 26271.7
 11 04 2013  17 44  -21.0383 26048.0 -03425.4 -07.4916 26272.3
 11 04 2013  17 45  -21.0381 26047.9 -03425.3 -07.4914 26272.1
 11 04 2013  17 46  -21.0375 26047.7 -03425.2 -07.4912 26271.9
 11 04 2013  17 47  -21.0373 26047.6 -03425.2 -07.4912 26271.8
 11 04 2013  17 48  -21.0368 26047.4 -03425.1 -07.4911 26271.6
 11 04 2013  17 49  -21.0363 26047.1 -03425.0 -07.4910 26271.3
 11 04 2013  17 50  -21.0365 26047.1 -03425.2 -07.4913 26271.4
 11 04 2013  17 51  -21.0366 26047.4 -03425.4 -07.4917 26271.7
 11 04 2013  17 52  -21.0367 26047.9 -03425.6 -07.4920 26272.2
 11 04 2013  17 53  -21.0370 26048.1 -03425.6 -07.4921 26272.4
 11 04 2013  17 54  -21.0366 26047.5 -03425.4 -07.4917 26271.7
 11 04 2013  17 55  -21.0358 26046.8 -03425.2 -07.4915 26271.0
 11 04 2013  17 56  -21.0351 26046.6 -03425.3 -07.4918 26270.9
 11 04 2013  17 57  -21.0350 26046.6 -03425.5 -07.4921 26270.9
 11 04 2013  17 58  -21.0349 26046.3 -03425.4 -07.4920 26270.6
 11 04 2013  17 59  -21.0347 26045.8 -03425.3 -07.4920 26270.1
 11 04 2013  18 00  -21.0345 26045.4 -03425.4 -07.4922 26269.7
 11 04 2013  18 01  -21.0341 26045.1 -03425.5 -07.4926 26269.4
 11 04 2013  18 02  -21.0339 26045.0 -03425.8 -07.4932 26269.4
 11 04 2013  18 03  -21.0339 26045.2 -03426.1 -07.4938 26269.6
 11 04 2013  18 04  -21.0339 26045.2 -03426.1 -07.4940 26269.6
 11 04 2013  18 05  -21.0341 26044.8 -03426.0 -07.4939 26269.2
 11 04 2013  18 06  -21.0341 26044.5 -03426.0 -07.4939 26268.9
 11 04 2013  18 07  -21.0340 26044.4 -03426.1 -07.4942 26268.8
 11 04 2013  18 08  -21.0339 26044.1 -03426.2 -07.4944 26268.5
 11 04 2013  18 09  -21.0340 26043.9 -03426.2 -07.4946 26268.3
 11 04 2013  18 10  -21.0338 26043.6 -03426.3 -07.4948 26268.1
 11 04 2013  18 11  -21.0338 26043.4 -03426.4 -07.4951 26267.8
 11 04 2013  18 12  -21.0340 26043.3 -03426.6 -07.4956 26267.8
 11 04 2013  18 13  -21.0341 26043.5 -03426.9 -07.4961 26268.0
 11 04 2013  18 14  -21.0340 26043.8 -03427.1 -07.4964 26268.3
 11 04 2013  18 15  -21.0342 26043.8 -03427.1 -07.4964 26268.3
 11 04 2013  18 16  -21.0342 26043.7 -03427.0 -07.4963 26268.2
 11 04 2013  18 17  -21.0342 26043.4 -03426.9 -07.4962 26267.9
 11 04 2013  18 18  -21.0342 26043.1 -03426.8 -07.4961 26267.6
 11 04 2013  18 19  -21.0341 26042.8 -03426.8 -07.4960 26267.3
 11 04 2013  18 20  -21.0338 26042.5 -03426.7 -07.4959 26267.0
 11 04 2013  18 21  -21.0334 26042.2 -03426.6 -07.4959 26266.6
 11 04 2013  18 22  -21.0331 26041.7 -03426.5 -07.4957 26266.1
 11 04 2013  18 23  -21.0328 26040.9 -03426.3 -07.4955 26265.4
 11 04 2013  18 24  -21.0328 26040.3 -03426.2 -07.4954 26264.7
 11 04 2013  18 25  -21.0329 26039.8 -03426.2 -07.4957 26264.3
 11 04 2013  18 26  -21.0329 26039.9 -03426.5 -07.4964 26264.4
 11 04 2013  18 27  -21.0330 26040.4 -03427.1 -07.4974 26265.0
 11 04 2013  18 28  -21.0331 26041.1 -03427.5 -07.4980 26265.7
 11 04 2013  18 29  -21.0329 26041.4 -03427.5 -07.4981 26266.0
 11 04 2013  18 30  -21.0325 26041.2 -03427.2 -07.4975 26265.8
 11 04 2013  18 31  -21.0321 26040.3 -03426.8 -07.4968 26264.9
 11 04 2013  18 32  -21.0319 26039.6 -03426.5 -07.4964 26264.0
 11 04 2013  18 33  -21.0319 26039.2 -03426.6 -07.4966 26263.7
