SAO LUIS EMBRACE-03 <226> 1 Min. Reported data

 DD MM YYYY  HH MM   D(Deg)  H(nT)   Z(nT)   I(Deg)   F(nT)

 14 08 2013  00 00  -21.0326 26026.1 -03473.8 -07.6025 26256.9
 14 08 2013  00 01  -21.0327 26026.3 -03473.9 -07.6027 26257.2
 14 08 2013  00 02  -21.0332 26026.9 -03474.2 -07.6033 26257.7
 14 08 2013  00 03  -21.0339 26027.3 -03474.5 -07.6037 26258.2
 14 08 2013  00 04  -21.0344 26027.8 -03474.7 -07.6040 26258.7
 14 08 2013  00 05  -21.0346 26028.1 -03474.8 -07.6042 26259.0
 14 08 2013  00 06  -21.0347 26028.2 -03474.8 -07.6041 26259.1
 14 08 2013  00 07  -21.0347 26028.1 -03474.7 -07.6039 26259.0
 14 08 2013  00 08  -21.0347 26027.9 -03474.5 -07.6036 26258.8
 14 08 2013  00 09  -21.0345 26028.2 -03474.6 -07.6036 26259.1
 14 08 2013  00 10  -21.0346 26028.0 -03474.5 -07.6036 26258.9
 14 08 2013  00 11  -21.0344 26027.6 -03474.3 -07.6032 26258.4
 14 08 2013  00 12  -21.0341 26027.2 -03474.1 -07.6028 26258.0
 14 08 2013  00 13  -21.0338 26026.9 -03473.9 -07.6025 26257.7
 14 08 2013  00 14  -21.0334 26026.9 -03473.9 -07.6025 26257.7
 14 08 2013  00 15  -21.0330 26026.8 -03473.9 -07.6025 26257.6
 14 08 2013  00 16  -21.0326 26026.6 -03473.8 -07.6024 26257.4
 14 08 2013  00 17  -21.0327 26026.5 -03473.8 -07.6024 26257.3
 14 08 2013  00 18  -21.0329 26026.3 -03473.8 -07.6024 26257.1
 14 08 2013  00 19  -21.0331 26026.0 -03473.7 -07.6023 26256.8
 14 08 2013  00 20  -21.0332 26025.8 -03473.6 -07.6021 26256.5
 14 08 2013  00 21  -21.0334 26025.2 -03473.3 -07.6018 26255.9
 14 08 2013  00 22  -21.0334 26024.8 -03473.2 -07.6016 26255.5
 14 08 2013  00 23  -21.0337 26024.5 -03473.1 -07.6015 26255.2
 14 08 2013  00 24  -21.0340 26024.1 -03473.0 -07.6014 26254.8
 14 08 2013  00 25  -21.0343 26023.6 -03472.8 -07.6011 26254.3
 14 08 2013  00 26  -21.0345 26023.2 -03472.7 -07.6010 26253.9
 14 08 2013  00 27  -21.0349 26022.8 -03472.6 -07.6009 26253.5
 14 08 2013  00 28  -21.0353 26022.5 -03472.5 -07.6008 26253.1
 14 08 2013  00 29  -21.0358 26022.2 -03472.5 -07.6008 26252.9
 14 08 2013  00 30  -21.0361 26022.0 -03472.5 -07.6008 26252.7
 14 08 2013  00 31  -21.0365 26021.8 -03472.4 -07.6008 26252.4
 14 08 2013  00 32  -21.0368 26021.9 -03472.4 -07.6008 26252.5
 14 08 2013  00 33  -21.0373 26021.8 -03472.5 -07.6010 26252.5
 14 08 2013  00 34  -21.0378 26021.8 -03472.5 -07.6011 26252.5
 14 08 2013  00 35  -21.0383 26021.8 -03472.6 -07.6012 26252.5
 14 08 2013  00 36  -21.0388 26021.7 -03472.6 -07.6012 26252.3
 14 08 2013  00 37  -21.0394 26021.4 -03472.5 -07.6011 26252.1
 14 08 2013  00 38  -21.0395 26021.4 -03472.5 -07.6010 26252.1
 14 08 2013  00 39  -21.0396 26021.3 -03472.5 -07.6010 26251.9
 14 08 2013  00 40  -21.0396 26021.6 -03472.5 -07.6011 26252.2
 14 08 2013  00 41  -21.0397 26021.8 -03472.7 -07.6014 26252.5
 14 08 2013  00 42  -21.0394 26022.2 -03472.9 -07.6018 26252.9
 14 08 2013  00 43  -21.0396 26022.2 -03473.0 -07.6020 26252.9
 14 08 2013  00 44  -21.0394 26023.2 -03473.5 -07.6028 26254.0
 14 08 2013  00 45  -21.0397 26022.6 -03473.4 -07.6026 26253.4
 14 08 2013  00 46  -21.0389 26023.0 -03473.5 -07.6027 26253.8
 14 08 2013  00 47  -21.0387 26022.9 -03473.4 -07.6026 26253.7
 14 08 2013  00 48  -21.0385 26022.8 -03473.3 -07.6025 26253.6
 14 08 2013  00 49  -21.0385 26022.6 -03473.3 -07.6025 26253.4
 14 08 2013  00 50  -21.0384 26022.4 -03473.2 -07.6023 26253.2
 14 08 2013  00 51  -21.0384 26022.0 -03473.1 -07.6022 26252.8
 14 08 2013  00 52  -21.0381 26021.9 -03473.0 -07.6021 26252.6
 14 08 2013  00 53  -21.0379 26021.7 -03473.0 -07.6021 26252.5
 14 08 2013  00 54  -21.0379 26021.4 -03472.9 -07.6019 26252.1
 14 08 2013  00 55  -21.0379 26021.0 -03472.8 -07.6018 26251.7
 14 08 2013  00 56  -21.0378 26020.8 -03472.7 -07.6016 26251.5
 14 08 2013  00 57  -21.0378 26020.6 -03472.6 -07.6016 26251.3
 14 08 2013  00 58  -21.0378 26020.4 -03472.7 -07.6017 26251.2
 14 08 2013  00 59  -21.0379 26020.4 -03472.7 -07.6018 26251.1
 14 08 2013  01 00  -21.0379 26020.5 -03472.8 -07.6020 26251.2
 14 08 2013  01 01  -21.0379 26020.7 -03473.0 -07.6023 26251.5
 14 08 2013  01 02  -21.0378 26020.8 -03473.0 -07.6024 26251.6
 14 08 2013  01 03  -21.0376 26020.8 -03473.0 -07.6024 26251.5
 14 08 2013  01 04  -21.0376 26020.8 -03473.1 -07.6025 26251.5
 14 08 2013  01 05  -21.0375 26021.1 -03473.3 -07.6029 26251.9
 14 08 2013  01 06  -21.0377 26021.3 -03473.4 -07.6032 26252.1
 14 08 2013  01 07  -21.0380 26021.3 -03473.5 -07.6032 26252.1
 14 08 2013  01 08  -21.0383 26021.4 -03473.6 -07.6034 26252.2
 14 08 2013  01 09  -21.0384 26021.6 -03473.6 -07.6035 26252.4
 14 08 2013  01 10  -21.0384 26021.9 -03473.7 -07.6036 26252.7
 14 08 2013  01 11  -21.0384 26021.9 -03473.8 -07.6037 26252.8
 14 08 2013  01 12  -21.0382 26022.2 -03473.9 -07.6038 26253.1
 14 08 2013  01 13  -21.0381 26022.3 -03473.9 -07.6038 26253.1
 14 08 2013  01 14  -21.0378 26022.5 -03474.0 -07.6040 26253.3
 14 08 2013  01 15  -21.0377 26022.7 -03474.1 -07.6041 26253.6
 14 08 2013  01 16  -21.0375 26023.0 -03474.2 -07.6043 26253.9
 14 08 2013  01 17  -21.0370 26023.3 -03474.3 -07.6044 26254.2
 14 08 2013  01 18  -21.0368 26023.7 -03474.4 -07.6046 26254.6
 14 08 2013  01 19  -21.0366 26023.9 -03474.6 -07.6048 26254.9
 14 08 2013  01 20  -21.0364 26024.0 -03474.6 -07.6048 26255.0
 14 08 2013  01 21  -21.0364 26024.1 -03474.6 -07.6049 26255.1
 14 08 2013  01 22  -21.0365 26024.3 -03474.7 -07.6050 26255.3
 14 08 2013  01 23  -21.0366 26024.7 -03474.9 -07.6053 26255.7
 14 08 2013  01 24  -21.0368 26024.9 -03474.9 -07.6054 26255.9
 14 08 2013  01 25  -21.0371 26024.9 -03474.9 -07.6053 26255.9
 14 08 2013  01 26  -21.0372 26024.7 -03474.8 -07.6050 26255.7
 14 08 2013  01 27  -21.0370 26024.6 -03474.6 -07.6047 26255.5
 14 08 2013  01 28  -21.0370 26024.5 -03474.5 -07.6046 26255.4
 14 08 2013  01 29  -21.0369 26024.3 -03474.5 -07.6044 26255.2
 14 08 2013  01 30  -21.0367 26024.0 -03474.3 -07.6041 26254.9
 14 08 2013  01 31  -21.0362 26023.7 -03474.0 -07.6037 26254.5
 14 08 2013  01 32  -21.0358 26023.1 -03473.8 -07.6035 26254.0
 14 08 2013  01 33  -21.0353 26022.9 -03473.7 -07.6033 26253.8
 14 08 2013  01 34  -21.0351 26022.7 -03473.7 -07.6032 26253.5
 14 08 2013  01 35  -21.0349 26022.5 -03473.7 -07.6032 26253.4
 14 08 2013  01 36  -21.0348 26022.3 -03473.6 -07.6032 26253.1
 14 08 2013  01 37  -21.0348 26022.2 -03473.6 -07.6032 26253.0
 14 08 2013  01 38  -21.0348 26021.9 -03473.5 -07.6032 26252.8
 14 08 2013  01 39  -21.0348 26021.6 -03473.5 -07.6031 26252.4
 14 08 2013  01 40  -21.0345 26021.4 -03473.4 -07.6030 26252.2
 14 08 2013  01 41  -21.0344 26021.3 -03473.4 -07.6030 26252.1
 14 08 2013  01 42  -21.0345 26021.1 -03473.4 -07.6031 26251.9
 14 08 2013  01 43  -21.0344 26021.0 -03473.4 -07.6031 26251.8
 14 08 2013  01 44  -21.0344 26020.8 -03473.4 -07.6032 26251.6
 14 08 2013  01 45  -21.0344 26020.4 -03473.3 -07.6031 26251.2
 14 08 2013  01 46  -21.0345 26020.1 -03473.2 -07.6030 26250.9
 14 08 2013  01 47  -21.0345 26019.7 -03473.0 -07.6027 26250.5
 14 08 2013  01 48  -21.0345 26019.4 -03473.0 -07.6027 26250.2
 14 08 2013  01 49  -21.0347 26019.1 -03472.9 -07.6026 26249.9
 14 08 2013  01 50  -21.0350 26018.8 -03472.9 -07.6026 26249.6
 14 08 2013  01 51  -21.0353 26018.5 -03472.8 -07.6025 26249.3
 14 08 2013  01 52  -21.0355 26018.3 -03472.7 -07.6025 26249.0
 14 08 2013  01 53  -21.0356 26018.0 -03472.7 -07.6025 26248.7
 14 08 2013  01 54  -21.0360 26017.8 -03472.7 -07.6025 26248.6
 14 08 2013  01 55  -21.0365 26017.6 -03472.7 -07.6026 26248.3
 14 08 2013  01 56  -21.0370 26017.3 -03472.6 -07.6026 26248.0
 14 08 2013  01 57  -21.0374 26017.1 -03472.5 -07.6024 26247.8
 14 08 2013  01 58  -21.0378 26016.9 -03472.6 -07.6025 26247.7
 14 08 2013  01 59  -21.0382 26016.9 -03472.5 -07.6025 26247.6
 14 08 2013  02 00  -21.0388 26016.7 -03472.6 -07.6025 26247.5
 14 08 2013  02 01  -21.0391 26016.4 -03472.5 -07.6024 26247.2
 14 08 2013  02 02  -21.0393 26016.2 -03472.4 -07.6023 26246.9
 14 08 2013  02 03  -21.0395 26016.0 -03472.3 -07.6023 26246.7
 14 08 2013  02 04  -21.0396 26016.1 -03472.4 -07.6024 26246.8
 14 08 2013  02 05  -21.0396 26016.2 -03472.4 -07.6025 26246.9
 14 08 2013  02 06  -21.0397 26016.2 -03472.5 -07.6025 26246.9
 14 08 2013  02 07  -21.0398 26016.1 -03472.5 -07.6025 26246.9
 14 08 2013  02 08  -21.0400 26015.9 -03472.4 -07.6025 26246.7
 14 08 2013  02 09  -21.0401 26015.7 -03472.3 -07.6022 26246.4
 14 08 2013  02 10  -21.0400 26015.3 -03472.1 -07.6020 26246.0
 14 08 2013  02 11  -21.0399 26015.0 -03472.0 -07.6017 26245.6
 14 08 2013  02 12  -21.0399 26014.6 -03471.8 -07.6016 26245.3
 14 08 2013  02 13  -21.0398 26014.3 -03471.7 -07.6014 26244.9
 14 08 2013  02 14  -21.0398 26014.0 -03471.6 -07.6013 26244.6
 14 08 2013  02 15  -21.0400 26013.7 -03471.5 -07.6012 26244.3
 14 08 2013  02 16  -21.0403 26013.2 -03471.4 -07.6010 26243.8
 14 08 2013  02 17  -21.0405 26012.8 -03471.3 -07.6008 26243.4
 14 08 2013  02 18  -21.0409 26012.4 -03471.1 -07.6008 26242.9
 14 08 2013  02 19  -21.0413 26012.2 -03471.1 -07.6008 26242.7
 14 08 2013  02 20  -21.0417 26012.0 -03471.1 -07.6008 26242.6
 14 08 2013  02 21  -21.0422 26012.0 -03471.1 -07.6008 26242.5
 14 08 2013  02 22  -21.0423 26011.9 -03471.2 -07.6010 26242.4
 14 08 2013  02 23  -21.0424 26011.7 -03471.1 -07.6008 26242.3
 14 08 2013  02 24  -21.0423 26011.5 -03471.0 -07.6007 26242.1
 14 08 2013  02 25  -21.0422 26011.4 -03471.0 -07.6008 26242.0
 14 08 2013  02 26  -21.0420 26011.3 -03471.0 -07.6008 26241.9
 14 08 2013  02 27  -21.0418 26011.2 -03471.0 -07.6008 26241.7
 14 08 2013  02 28  -21.0417 26011.1 -03471.0 -07.6008 26241.7
 14 08 2013  02 29  -21.0415 26010.7 -03470.9 -07.6006 26241.3
 14 08 2013  02 30  -21.0416 26010.5 -03470.9 -07.6007 26241.0
 14 08 2013  02 31  -21.0416 26010.3 -03470.8 -07.6006 26240.8
 14 08 2013  02 32  -21.0416 26010.1 -03470.8 -07.6007 26240.7
 14 08 2013  02 33  -21.0416 26009.9 -03470.8 -07.6008 26240.5
 14 08 2013  02 34  -21.0412 26009.7 -03470.8 -07.6008 26240.3
 14 08 2013  02 35  -21.0408 26009.4 -03470.7 -07.6007 26239.9
 14 08 2013  02 36  -21.0402 26009.1 -03470.7 -07.6006 26239.6
 14 08 2013  02 37  -21.0395 26008.8 -03470.6 -07.6006 26239.3
 14 08 2013  02 38  -21.0390 26008.6 -03470.6 -07.6007 26239.1
 14 08 2013  02 39  -21.0389 26008.6 -03470.8 -07.6011 26239.2
 14 08 2013  02 40  -21.0389 26008.6 -03470.9 -07.6014 26239.1
 14 08 2013  02 41  -21.0390 26008.6 -03471.1 -07.6017 26239.2
 14 08 2013  02 42  -21.0392 26008.7 -03471.2 -07.6020 26239.4
 14 08 2013  02 43  -21.0392 26009.4 -03471.6 -07.6027 26240.0
 14 08 2013  02 44  -21.0387 26009.4 -03471.7 -07.6028 26240.0
 14 08 2013  02 45  -21.0387 26009.5 -03471.8 -07.6031 26240.2
 14 08 2013  02 46  -21.0385 26009.9 -03472.1 -07.6035 26240.6
 14 08 2013  02 47  -21.0381 26010.4 -03472.4 -07.6041 26241.2
 14 08 2013  02 48  -21.0373 26011.3 -03472.8 -07.6047 26242.1
 14 08 2013  02 49  -21.0369 26012.1 -03473.3 -07.6056 26242.9
 14 08 2013  02 50  -21.0364 26012.8 -03473.8 -07.6063 26243.7
 14 08 2013  02 51  -21.0361 26013.4 -03474.0 -07.6067 26244.4
 14 08 2013  02 52  -21.0359 26013.9 -03474.3 -07.6071 26244.9
 14 08 2013  02 53  -21.0363 26014.3 -03474.5 -07.6074 26245.3
 14 08 2013  02 54  -21.0366 26014.9 -03474.8 -07.6080 26246.0
 14 08 2013  02 55  -21.0370 26015.9 -03475.3 -07.6086 26247.0
 14 08 2013  02 56  -21.0374 26016.4 -03475.5 -07.6090 26247.5
 14 08 2013  02 57  -21.0375 26016.8 -03475.6 -07.6091 26247.9
 14 08 2013  02 58  -21.0375 26017.2 -03475.7 -07.6092 26248.4
 14 08 2013  02 59  -21.0375 26017.3 -03475.7 -07.6092 26248.5
 14 08 2013  03 00  -21.0372 26017.5 -03475.7 -07.6091 26248.6
 14 08 2013  03 01  -21.0373 26017.8 -03475.7 -07.6091 26249.0
 14 08 2013  03 02  -21.0376 26018.2 -03475.9 -07.6093 26249.4
 14 08 2013  03 03  -21.0375 26018.5 -03475.9 -07.6093 26249.7
 14 08 2013  03 04  -21.0372 26018.8 -03476.0 -07.6094 26250.0
 14 08 2013  03 05  -21.0368 26018.9 -03475.9 -07.6092 26250.0
 14 08 2013  03 06  -21.0363 26018.8 -03475.7 -07.6088 26249.9
 14 08 2013  03 07  -21.0357 26018.4 -03475.5 -07.6084 26249.5
 14 08 2013  03 08  -21.0351 26018.3 -03475.4 -07.6082 26249.3
 14 08 2013  03 09  -21.0345 26017.9 -03475.1 -07.6078 26249.0
 14 08 2013  03 10  -21.0344 26017.8 -03475.1 -07.6077 26248.9
 14 08 2013  03 11  -21.0342 26017.9 -03475.1 -07.6077 26249.0
 14 08 2013  03 12  -21.0342 26017.8 -03475.1 -07.6077 26248.9
 14 08 2013  03 13  -21.0341 26017.7 -03475.0 -07.6076 26248.7
 14 08 2013  03 14  -21.0337 26017.5 -03474.9 -07.6073 26248.5
 14 08 2013  03 15  -21.0331 26017.2 -03474.7 -07.6071 26248.2
 14 08 2013  03 16  -21.0326 26017.0 -03474.6 -07.6069 26248.0
 14 08 2013  03 17  -21.0321 26016.8 -03474.5 -07.6068 26247.8
 14 08 2013  03 18  -21.0317 26016.6 -03474.4 -07.6066 26247.6
 14 08 2013  03 19  -21.0316 26016.4 -03474.4 -07.6065 26247.4
 14 08 2013  03 20  -21.0316 26016.4 -03474.4 -07.6067 26247.3
 14 08 2013  03 21  -21.0315 26016.4 -03474.4 -07.6067 26247.4
 14 08 2013  03 22  -21.0314 26016.3 -03474.4 -07.6068 26247.2
 14 08 2013  03 23  -21.0316 26016.1 -03474.4 -07.6066 26247.1
 14 08 2013  03 24  -21.0316 26016.1 -03474.4 -07.6068 26247.1
 14 08 2013  03 25  -21.0316 26016.0 -03474.5 -07.6069 26247.0
 14 08 2013  03 26  -21.0318 26015.8 -03474.4 -07.6069 26246.8
 14 08 2013  03 27  -21.0320 26015.6 -03474.4 -07.6068 26246.6
 14 08 2013  03 28  -21.0322 26015.4 -03474.3 -07.6067 26246.4
 14 08 2013  03 29  -21.0326 26015.2 -03474.3 -07.6067 26246.2
 14 08 2013  03 30  -21.0326 26015.0 -03474.2 -07.6065 26246.0
 14 08 2013  03 31  -21.0323 26014.9 -03474.1 -07.6064 26245.8
 14 08 2013  03 32  -21.0317 26014.9 -03474.1 -07.6063 26245.8
 14 08 2013  03 33  -21.0312 26014.8 -03474.0 -07.6063 26245.8
 14 08 2013  03 34  -21.0311 26014.7 -03474.0 -07.6063 26245.6
 14 08 2013  03 35  -21.0310 26014.5 -03474.0 -07.6063 26245.4
 14 08 2013  03 36  -21.0309 26014.1 -03473.9 -07.6062 26245.0
 14 08 2013  03 37  -21.0310 26013.9 -03473.8 -07.6061 26244.8
 14 08 2013  03 38  -21.0310 26013.6 -03473.7 -07.6060 26244.5
 14 08 2013  03 39  -21.0310 26013.4 -03473.7 -07.6060 26244.3
 14 08 2013  03 40  -21.0311 26013.2 -03473.7 -07.6061 26244.1
 14 08 2013  03 41  -21.0315 26013.1 -03473.8 -07.6062 26244.0
 14 08 2013  03 42  -21.0319 26012.8 -03473.7 -07.6061 26243.8
 14 08 2013  03 43  -21.0319 26012.5 -03473.6 -07.6061 26243.4
 14 08 2013  03 44  -21.0316 26012.5 -03473.6 -07.6060 26243.4
 14 08 2013  03 45  -21.0317 26012.6 -03473.7 -07.6062 26243.5
 14 08 2013  03 46  -21.0319 26012.5 -03473.7 -07.6063 26243.5
 14 08 2013  03 47  -21.0319 26012.5 -03473.8 -07.6064 26243.4
 14 08 2013  03 48  -21.0320 26012.6 -03473.8 -07.6065 26243.5
 14 08 2013  03 49  -21.0322 26012.8 -03473.9 -07.6067 26243.7
 14 08 2013  03 50  -21.0322 26012.8 -03474.0 -07.6068 26243.7
 14 08 2013  03 51  -21.0322 26012.8 -03474.0 -07.6068 26243.8
 14 08 2013  03 52  -21.0321 26012.7 -03474.0 -07.6068 26243.7
 14 08 2013  03 53  -21.0321 26012.6 -03473.9 -07.6067 26243.6
 14 08 2013  03 54  -21.0320 26012.5 -03473.9 -07.6066 26243.4
 14 08 2013  03 55  -21.0319 26012.5 -03473.8 -07.6065 26243.5
 14 08 2013  03 56  -21.0320 26012.7 -03473.9 -07.6067 26243.6
 14 08 2013  03 57  -21.0321 26012.5 -03473.9 -07.6067 26243.5
 14 08 2013  03 58  -21.0320 26012.5 -03473.9 -07.6067 26243.5
 14 08 2013  03 59  -21.0321 26012.6 -03474.0 -07.6068 26243.6
 14 08 2013  04 00  -21.0319 26012.6 -03474.0 -07.6068 26243.6
 14 08 2013  04 01  -21.0317 26012.7 -03474.0 -07.6068 26243.6
 14 08 2013  04 02  -21.0316 26012.7 -03474.0 -07.6068 26243.7
 14 08 2013  04 03  -21.0314 26012.8 -03474.1 -07.6069 26243.8
 14 08 2013  04 04  -21.0308 26012.8 -03474.1 -07.6069 26243.8
 14 08 2013  04 05  -21.0302 26012.8 -03474.0 -07.6068 26243.7
 14 08 2013  04 06  -21.0295 26012.7 -03474.0 -07.6068 26243.7
 14 08 2013  04 07  -21.0290 26012.7 -03474.0 -07.6068 26243.7
 14 08 2013  04 08  -21.0288 26012.8 -03474.1 -07.6071 26243.8
 14 08 2013  04 09  -21.0286 26013.0 -03474.2 -07.6073 26244.0
 14 08 2013  04 10  -21.0286 26013.1 -03474.3 -07.6074 26244.1
 14 08 2013  04 11  -21.0287 26013.4 -03474.5 -07.6077 26244.4
 14 08 2013  04 12  -21.0288 26013.6 -03474.6 -07.6079 26244.6
 14 08 2013  04 13  -21.0288 26013.6 -03474.6 -07.6079 26244.6
 14 08 2013  04 14  -21.0286 26013.6 -03474.6 -07.6079 26244.6
 14 08 2013  04 15  -21.0286 26013.5 -03474.6 -07.6078 26244.5
 14 08 2013  04 16  -21.0288 26013.5 -03474.6 -07.6079 26244.6
 14 08 2013  04 17  -21.0290 26013.6 -03474.7 -07.6080 26244.7
 14 08 2013  04 18  -21.0289 26013.8 -03474.7 -07.6081 26244.8
 14 08 2013  04 19  -21.0289 26014.1 -03474.8 -07.6082 26245.1
 14 08 2013  04 20  -21.0290 26014.4 -03474.9 -07.6084 26245.4
 14 08 2013  04 21  -21.0289 26014.7 -03475.1 -07.6086 26245.8
 14 08 2013  04 22  -21.0285 26014.9 -03475.1 -07.6086 26246.0
 14 08 2013  04 23  -21.0281 26015.1 -03475.1 -07.6086 26246.2
 14 08 2013  04 24  -21.0275 26015.3 -03475.2 -07.6086 26246.3
 14 08 2013  04 25  -21.0268 26015.4 -03475.2 -07.6087 26246.5
 14 08 2013  04 26  -21.0264 26015.5 -03475.2 -07.6087 26246.6
 14 08 2013  04 27  -21.0262 26015.5 -03475.2 -07.6087 26246.6
 14 08 2013  04 28  -21.0261 26015.5 -03475.3 -07.6087 26246.6
 14 08 2013  04 29  -21.0260 26015.6 -03475.3 -07.6088 26246.7
 14 08 2013  04 30  -21.0261 26015.6 -03475.3 -07.6087 26246.6
 14 08 2013  04 31  -21.0260 26015.5 -03475.2 -07.6087 26246.6
 14 08 2013  04 32  -21.0259 26015.5 -03475.2 -07.6086 26246.6
 14 08 2013  04 33  -21.0260 26015.6 -03475.2 -07.6087 26246.7
 14 08 2013  04 34  -21.0262 26015.7 -03475.3 -07.6088 26246.8
 14 08 2013  04 35  -21.0265 26015.9 -03475.4 -07.6090 26247.0
 14 08 2013  04 36  -21.0267 26016.1 -03475.5 -07.6091 26247.2
 14 08 2013  04 37  -21.0269 26016.3 -03475.6 -07.6092 26247.4
 14 08 2013  04 38  -21.0272 26016.4 -03475.6 -07.6093 26247.6
 14 08 2013  04 39  -21.0277 26016.4 -03475.6 -07.6092 26247.5
 14 08 2013  04 40  -21.0279 26016.7 -03475.7 -07.6093 26247.8
 14 08 2013  04 41  -21.0277 26017.3 -03475.9 -07.6097 26248.5
 14 08 2013  04 42  -21.0275 26017.7 -03476.0 -07.6097 26248.8
 14 08 2013  04 43  -21.0274 26017.9 -03476.1 -07.6099 26249.1
 14 08 2013  04 44  -21.0274 26018.3 -03476.2 -07.6100 26249.5
 14 08 2013  04 45  -21.0273 26018.8 -03476.4 -07.6102 26250.0
 14 08 2013  04 46  -21.0273 26019.7 -03476.7 -07.6107 26251.0
 14 08 2013  04 47  -21.0268 26020.6 -03477.1 -07.6113 26251.9
 14 08 2013  04 48  -21.0265 26021.6 -03477.5 -07.6119 26252.9
 14 08 2013  04 49  -21.0261 26022.1 -03477.6 -07.6120 26253.5
 14 08 2013  04 50  -21.0255 26023.1 -03477.9 -07.6123 26254.5
 14 08 2013  04 51  -21.0252 26023.6 -03478.2 -07.6127 26255.0
 14 08 2013  04 52  -21.0252 26023.6 -03478.1 -07.6124 26255.0
 14 08 2013  04 53  -21.0252 26023.8 -03478.0 -07.6122 26255.2
 14 08 2013  04 54  -21.0250 26024.0 -03478.0 -07.6121 26255.4
 14 08 2013  04 55  -21.0246 26024.6 -03478.1 -07.6122 26256.0
 14 08 2013  04 56  -21.0245 26025.3 -03478.3 -07.6125 26256.7
 14 08 2013  04 57  -21.0243 26026.2 -03478.6 -07.6129 26257.7
 14 08 2013  04 58  -21.0241 26026.9 -03478.9 -07.6132 26258.4
 14 08 2013  04 59  -21.0237 26027.6 -03479.1 -07.6135 26259.1
 14 08 2013  05 00  -21.0234 26027.9 -03479.1 -07.6134 26259.4
 14 08 2013  05 01  -21.0230 26028.4 -03479.1 -07.6133 26259.9
 14 08 2013  05 02  -21.0228 26029.1 -03479.3 -07.6135 26260.6
 14 08 2013  05 03  -21.0227 26029.5 -03479.4 -07.6136 26261.0
 14 08 2013  05 04  -21.0229 26029.8 -03479.4 -07.6135 26261.4
 14 08 2013  05 05  -21.0231 26030.2 -03479.5 -07.6136 26261.8
 14 08 2013  05 06  -21.0233 26030.7 -03479.5 -07.6136 26262.2
 14 08 2013  05 07  -21.0237 26030.9 -03479.5 -07.6135 26262.4
 14 08 2013  05 08  -21.0240 26031.2 -03479.5 -07.6133 26262.7
 14 08 2013  05 09  -21.0244 26031.3 -03479.4 -07.6131 26262.8
 14 08 2013  05 10  -21.0248 26031.2 -03479.2 -07.6126 26262.6
 14 08 2013  05 11  -21.0250 26031.0 -03478.9 -07.6122 26262.5
 14 08 2013  05 12  -21.0253 26030.9 -03478.7 -07.6117 26262.3
 14 08 2013  05 13  -21.0257 26030.5 -03478.4 -07.6112 26261.9
 14 08 2013  05 14  -21.0261 26030.1 -03478.1 -07.6106 26261.4
 14 08 2013  05 15  -21.0262 26029.9 -03477.9 -07.6102 26261.3
 14 08 2013  05 16  -21.0266 26029.5 -03477.6 -07.6098 26260.8
 14 08 2013  05 17  -21.0269 26029.2 -03477.4 -07.6093 26260.5
 14 08 2013  05 18  -21.0269 26028.9 -03477.1 -07.6090 26260.1
 14 08 2013  05 19  -21.0268 26028.6 -03476.9 -07.6085 26259.8
 14 08 2013  05 20  -21.0267 26028.4 -03476.7 -07.6082 26259.6
 14 08 2013  05 21  -21.0267 26028.3 -03476.6 -07.6080 26259.4
 14 08 2013  05 22  -21.0270 26028.4 -03476.7 -07.6081 26259.5
 14 08 2013  05 23  -21.0268 26028.4 -03476.6 -07.6080 26259.5
 14 08 2013  05 24  -21.0265 26028.5 -03476.6 -07.6080 26259.7
 14 08 2013  05 25  -21.0262 26028.8 -03476.8 -07.6081 26260.0
 14 08 2013  05 26  -21.0258 26029.0 -03476.8 -07.6083 26260.2
 14 08 2013  05 27  -21.0253 26029.0 -03476.8 -07.6081 26260.2
 14 08 2013  05 28  -21.0248 26028.9 -03476.7 -07.6080 26260.1
 14 08 2013  05 29  -21.0245 26029.1 -03476.7 -07.6080 26260.3
 14 08 2013  05 30  -21.0246 26029.4 -03476.8 -07.6082 26260.5
 14 08 2013  05 31  -21.0247 26029.8 -03477.0 -07.6085 26261.0
 14 08 2013  05 32  -21.0249 26030.2 -03477.2 -07.6087 26261.4
 14 08 2013  05 33  -21.0249 26030.3 -03477.2 -07.6088 26261.5
 14 08 2013  05 34  -21.0247 26030.4 -03477.2 -07.6086 26261.6
 14 08 2013  05 35  -21.0244 26030.5 -03477.1 -07.6085 26261.7
 14 08 2013  05 36  -21.0243 26030.8 -03477.2 -07.6085 26262.0
 14 08 2013  05 37  -21.0241 26030.9 -03477.2 -07.6086 26262.1
 14 08 2013  05 38  -21.0239 26031.0 -03477.2 -07.6084 26262.2
 14 08 2013  05 39  -21.0240 26031.1 -03477.2 -07.6084 26262.3
 14 08 2013  05 40  -21.0244 26031.1 -03477.2 -07.6083 26262.3
 14 08 2013  05 41  -21.0249 26031.1 -03477.1 -07.6082 26262.3
 14 08 2013  05 42  -21.0251 26031.0 -03476.9 -07.6079 26262.2
 14 08 2013  05 43  -21.0254 26031.1 -03476.9 -07.6079 26262.2
 14 08 2013  05 44  -21.0255 26031.2 -03476.9 -07.6078 26262.4
 14 08 2013  05 45  -21.0256 26031.3 -03476.9 -07.6077 26262.5
 14 08 2013  05 46  -21.0255 26031.4 -03476.9 -07.6076 26262.6
 14 08 2013  05 47  -21.0255 26031.5 -03476.8 -07.6075 26262.7
 14 08 2013  05 48  -21.0256 26031.5 -03476.8 -07.6074 26262.7
 14 08 2013  05 49  -21.0256 26031.6 -03476.7 -07.6073 26262.7
 14 08 2013  05 50  -21.0255 26031.4 -03476.6 -07.6070 26262.5
 14 08 2013  05 51  -21.0255 26031.1 -03476.4 -07.6066 26262.2
 14 08 2013  05 52  -21.0256 26031.0 -03476.3 -07.6064 26262.1
 14 08 2013  05 53  -21.0258 26030.9 -03476.2 -07.6063 26262.0
 14 08 2013  05 54  -21.0259 26030.8 -03476.1 -07.6062 26261.9
 14 08 2013  05 55  -21.0262 26030.8 -03476.1 -07.6061 26261.8
 14 08 2013  05 56  -21.0263 26030.8 -03476.1 -07.6061 26261.8
 14 08 2013  05 57  -21.0261 26030.7 -03476.0 -07.6059 26261.8
 14 08 2013  05 58  -21.0260 26030.7 -03475.9 -07.6058 26261.7
 14 08 2013  05 59  -21.0259 26030.6 -03475.9 -07.6057 26261.6
 14 08 2013  06 00  -21.0257 26030.4 -03475.8 -07.6056 26261.5
 14 08 2013  06 01  -21.0255 26030.2 -03475.7 -07.6054 26261.3
 14 08 2013  06 02  -21.0252 26030.0 -03475.5 -07.6052 26261.0
 14 08 2013  06 03  -21.0248 26029.7 -03475.4 -07.6049 26260.7
 14 08 2013  06 04  -21.0245 26029.5 -03475.3 -07.6048 26260.5
 14 08 2013  06 05  -21.0241 26029.3 -03475.2 -07.6046 26260.3
 14 08 2013  06 06  -21.0237 26029.1 -03475.1 -07.6045 26260.0
 14 08 2013  06 07  -21.0233 26028.8 -03475.0 -07.6044 26259.8
 14 08 2013  06 08  -21.0229 26028.7 -03475.0 -07.6044 26259.7
 14 08 2013  06 09  -21.0226 26028.8 -03475.1 -07.6046 26259.7
 14 08 2013  06 10  -21.0223 26028.9 -03475.2 -07.6048 26259.9
 14 08 2013  06 11  -21.0221 26029.1 -03475.3 -07.6050 26260.0
 14 08 2013  06 12  -21.0221 26029.0 -03475.4 -07.6051 26260.0
 14 08 2013  06 13  -21.0219 26028.9 -03475.3 -07.6051 26259.9
 14 08 2013  06 14  -21.0217 26028.9 -03475.4 -07.6051 26259.9
 14 08 2013  06 15  -21.0216 26028.9 -03475.4 -07.6052 26259.9
 14 08 2013  06 16  -21.0218 26029.0 -03475.5 -07.6054 26260.1
 14 08 2013  06 17  -21.0218 26029.2 -03475.6 -07.6055 26260.2
 14 08 2013  06 18  -21.0219 26029.3 -03475.7 -07.6057 26260.4
 14 08 2013  06 19  -21.0217 26029.4 -03475.7 -07.6057 26260.5
 14 08 2013  06 20  -21.0215 26029.5 -03475.8 -07.6058 26260.6
 14 08 2013  06 21  -21.0213 26029.6 -03475.8 -07.6059 26260.7
 14 08 2013  06 22  -21.0213 26029.6 -03475.8 -07.6059 26260.7
 14 08 2013  06 23  -21.0215 26029.6 -03475.8 -07.6059 26260.6
 14 08 2013  06 24  -21.0215 26029.6 -03475.8 -07.6058 26260.6
 14 08 2013  06 25  -21.0215 26029.4 -03475.7 -07.6057 26260.5
 14 08 2013  06 26  -21.0214 26029.2 -03475.6 -07.6055 26260.3
 14 08 2013  06 27  -21.0213 26029.1 -03475.5 -07.6054 26260.1
 14 08 2013  06 28  -21.0213 26029.0 -03475.5 -07.6053 26260.0
 14 08 2013  06 29  -21.0214 26028.9 -03475.4 -07.6052 26259.9
 14 08 2013  06 30  -21.0217 26028.7 -03475.4 -07.6052 26259.7
 14 08 2013  06 31  -21.0221 26028.6 -03475.3 -07.6051 26259.6
 14 08 2013  06 32  -21.0226 26028.5 -03475.4 -07.6052 26259.5
 14 08 2013  06 33  -21.0229 26028.3 -03475.3 -07.6051 26259.3
 14 08 2013  06 34  -21.0232 26028.1 -03475.2 -07.6049 26259.1
 14 08 2013  06 35  -21.0232 26027.9 -03475.0 -07.6046 26258.8
 14 08 2013  06 36  -21.0228 26027.7 -03474.9 -07.6045 26258.6
 14 08 2013  06 37  -21.0225 26027.4 -03474.8 -07.6043 26258.4
 14 08 2013  06 38  -21.0223 26027.3 -03474.7 -07.6041 26258.2
 14 08 2013  06 39  -21.0221 26027.0 -03474.7 -07.6041 26258.0
 14 08 2013  06 40  -21.0221 26026.8 -03474.6 -07.6041 26257.7
 14 08 2013  06 41  -21.0221 26026.6 -03474.6 -07.6041 26257.5
 14 08 2013  06 42  -21.0220 26026.4 -03474.5 -07.6040 26257.3
 14 08 2013  06 43  -21.0218 26026.3 -03474.6 -07.6041 26257.2
 14 08 2013  06 44  -21.0216 26026.2 -03474.5 -07.6041 26257.1
 14 08 2013  06 45  -21.0214 26026.1 -03474.6 -07.6042 26257.0
 14 08 2013  06 46  -21.0214 26026.0 -03474.5 -07.6042 26256.9
 14 08 2013  06 47  -21.0213 26025.9 -03474.5 -07.6042 26256.8
 14 08 2013  06 48  -21.0210 26025.6 -03474.5 -07.6041 26256.5
 14 08 2013  06 49  -21.0204 26025.4 -03474.4 -07.6040 26256.2
 14 08 2013  06 50  -21.0197 26025.3 -03474.4 -07.6040 26256.2
 14 08 2013  06 51  -21.0190 26025.3 -03474.4 -07.6041 26256.2
 14 08 2013  06 52  -21.0185 26025.1 -03474.4 -07.6042 26256.0
 14 08 2013  06 53  -21.0178 26025.0 -03474.4 -07.6042 26255.9
 14 08 2013  06 54  -21.0171 26025.0 -03474.5 -07.6044 26255.9
 14 08 2013  06 55  -21.0165 26025.0 -03474.6 -07.6045 26255.9
 14 08 2013  06 56  -21.0162 26025.0 -03474.7 -07.6048 26256.0
 14 08 2013  06 57  -21.0159 26024.9 -03474.7 -07.6049 26255.9
 14 08 2013  06 58  -21.0159 26024.9 -03474.8 -07.6050 26255.8
 14 08 2013  06 59  -21.0162 26025.2 -03475.0 -07.6054 26256.2
 14 08 2013  07 00  -21.0164 26025.6 -03475.3 -07.6059 26256.6
 14 08 2013  07 01  -21.0165 26025.9 -03475.5 -07.6062 26256.9
 14 08 2013  07 02  -21.0167 26026.1 -03475.6 -07.6065 26257.1
 14 08 2013  07 03  -21.0169 26026.3 -03475.7 -07.6067 26257.3
 14 08 2013  07 04  -21.0171 26026.4 -03475.8 -07.6068 26257.5
 14 08 2013  07 05  -21.0174 26026.5 -03475.9 -07.6069 26257.6
 14 08 2013  07 06  -21.0177 26026.5 -03475.8 -07.6068 26257.6
 14 08 2013  07 07  -21.0181 26026.7 -03475.9 -07.6068 26257.7
 14 08 2013  07 08  -21.0185 26026.9 -03476.0 -07.6070 26258.0
 14 08 2013  07 09  -21.0189 26027.1 -03476.1 -07.6071 26258.2
 14 08 2013  07 10  -21.0192 26027.2 -03476.1 -07.6072 26258.3
 14 08 2013  07 11  -21.0192 26027.1 -03476.0 -07.6070 26258.2
 14 08 2013  07 12  -21.0190 26027.0 -03475.9 -07.6067 26258.1
 14 08 2013  07 13  -21.0187 26026.9 -03475.7 -07.6065 26258.0
 14 08 2013  07 14  -21.0184 26026.8 -03475.6 -07.6063 26257.8
 14 08 2013  07 15  -21.0181 26026.7 -03475.5 -07.6061 26257.8
 14 08 2013  07 16  -21.0175 26026.7 -03475.5 -07.6061 26257.7
 14 08 2013  07 17  -21.0170 26026.6 -03475.5 -07.6060 26257.6
 14 08 2013  07 18  -21.0168 26026.5 -03475.5 -07.6060 26257.6
 14 08 2013  07 19  -21.0164 26026.5 -03475.5 -07.6060 26257.5
 14 08 2013  07 20  -21.0162 26026.7 -03475.6 -07.6062 26257.7
 14 08 2013  07 21  -21.0158 26026.8 -03475.7 -07.6063 26257.8
 14 08 2013  07 22  -21.0157 26026.9 -03475.7 -07.6065 26258.0
 14 08 2013  07 23  -21.0154 26026.9 -03475.8 -07.6065 26258.0
 14 08 2013  07 24  -21.0152 26026.9 -03475.7 -07.6065 26258.0
 14 08 2013  07 25  -21.0151 26026.8 -03475.7 -07.6064 26257.9
 14 08 2013  07 26  -21.0150 26026.6 -03475.6 -07.6064 26257.7
 14 08 2013  07 27  -21.0150 26026.5 -03475.6 -07.6063 26257.5
 14 08 2013  07 28  -21.0148 26026.6 -03475.6 -07.6063 26257.7
 14 08 2013  07 29  -21.0150 26026.8 -03475.8 -07.6066 26257.9
 14 08 2013  07 30  -21.0150 26026.9 -03475.8 -07.6067 26258.0
 14 08 2013  07 31  -21.0149 26026.9 -03475.8 -07.6067 26257.9
 14 08 2013  07 32  -21.0145 26026.8 -03475.8 -07.6066 26257.9
 14 08 2013  07 33  -21.0143 26026.6 -03475.7 -07.6064 26257.6
 14 08 2013  07 34  -21.0139 26026.4 -03475.6 -07.6062 26257.4
 14 08 2013  07 35  -21.0137 26026.2 -03475.5 -07.6061 26257.2
 14 08 2013  07 36  -21.0136 26026.1 -03475.4 -07.6061 26257.1
 14 08 2013  07 37  -21.0135 26026.0 -03475.4 -07.6061 26257.0
 14 08 2013  07 38  -21.0136 26026.0 -03475.5 -07.6062 26257.0
 14 08 2013  07 39  -21.0137 26026.0 -03475.5 -07.6063 26257.0
 14 08 2013  07 40  -21.0134 26025.9 -03475.5 -07.6062 26256.9
 14 08 2013  07 41  -21.0132 26025.8 -03475.5 -07.6062 26256.9
 14 08 2013  07 42  -21.0129 26025.8 -03475.5 -07.6062 26256.8
 14 08 2013  07 43  -21.0127 26025.7 -03475.5 -07.6062 26256.7
 14 08 2013  07 44  -21.0126 26025.7 -03475.5 -07.6063 26256.7
 14 08 2013  07 45  -21.0125 26025.6 -03475.5 -07.6063 26256.6
 14 08 2013  07 46  -21.0122 26025.5 -03475.4 -07.6062 26256.6
 14 08 2013  07 47  -21.0119 26025.5 -03475.4 -07.6063 26256.5
 14 08 2013  07 48  -21.0116 26025.4 -03475.4 -07.6062 26256.5
 14 08 2013  07 49  -21.0111 26025.4 -03475.4 -07.6062 26256.4
 14 08 2013  07 50  -21.0107 26025.3 -03475.4 -07.6062 26256.3
 14 08 2013  07 51  -21.0102 26025.2 -03475.4 -07.6062 26256.2
 14 08 2013  07 52  -21.0098 26025.0 -03475.3 -07.6061 26256.0
 14 08 2013  07 53  -21.0094 26024.8 -03475.3 -07.6062 26255.8
 14 08 2013  07 54  -21.0090 26024.6 -03475.3 -07.6061 26255.6
 14 08 2013  07 55  -21.0086 26024.3 -03475.2 -07.6060 26255.3
 14 08 2013  07 56  -21.0082 26024.1 -03475.1 -07.6060 26255.1
 14 08 2013  07 57  -21.0078 26024.0 -03475.2 -07.6061 26255.0
 14 08 2013  07 58  -21.0074 26023.9 -03475.2 -07.6062 26254.9
 14 08 2013  07 59  -21.0069 26023.8 -03475.2 -07.6062 26254.8
 14 08 2013  08 00  -21.0064 26023.9 -03475.3 -07.6064 26254.9
 14 08 2013  08 01  -21.0061 26023.8 -03475.3 -07.6065 26254.9
 14 08 2013  08 02  -21.0059 26023.8 -03475.5 -07.6068 26254.9
 14 08 2013  08 03  -21.0054 26023.7 -03475.4 -07.6068 26254.7
 14 08 2013  08 04  -21.0051 26023.6 -03475.4 -07.6068 26254.6
 14 08 2013  08 05  -21.0050 26023.4 -03475.5 -07.6069 26254.5
 14 08 2013  08 06  -21.0052 26023.4 -03475.5 -07.6070 26254.4
 14 08 2013  08 07  -21.0058 26023.3 -03475.6 -07.6072 26254.3
 14 08 2013  08 08  -21.0060 26023.1 -03475.6 -07.6073 26254.2
 14 08 2013  08 09  -21.0053 26023.0 -03475.5 -07.6071 26254.0
 14 08 2013  08 10  -21.0040 26022.8 -03475.4 -07.6069 26253.9
 14 08 2013  08 11  -21.0029 26022.8 -03475.4 -07.6069 26253.9
 14 08 2013  08 12  -21.0025 26022.8 -03475.5 -07.6071 26253.8
 14 08 2013  08 13  -21.0024 26022.8 -03475.6 -07.6074 26253.9
 14 08 2013  08 14  -21.0024 26022.9 -03475.7 -07.6076 26253.9
 14 08 2013  08 15  -21.0023 26022.9 -03475.8 -07.6079 26254.0
 14 08 2013  08 16  -21.0023 26022.9 -03475.9 -07.6080 26254.0
 14 08 2013  08 17  -21.0022 26022.9 -03476.0 -07.6081 26254.0
 14 08 2013  08 18  -21.0018 26022.9 -03476.0 -07.6082 26254.0
 14 08 2013  08 19  -21.0015 26022.8 -03476.0 -07.6082 26254.0
 14 08 2013  08 20  -21.0013 26022.8 -03476.0 -07.6082 26253.9
 14 08 2013  08 21  -21.0010 26022.8 -03476.1 -07.6084 26254.0
 14 08 2013  08 22  -21.0006 26022.9 -03476.1 -07.6084 26254.0
 14 08 2013  08 23  -21.0000 26023.0 -03476.1 -07.6085 26254.1
 14 08 2013  08 24  -20.9995 26023.0 -03476.2 -07.6085 26254.1
 14 08 2013  08 25  -20.9993 26023.2 -03476.3 -07.6087 26254.3
 14 08 2013  08 26  -20.9990 26023.2 -03476.4 -07.6089 26254.4
 14 08 2013  08 27  -20.9988 26023.3 -03476.5 -07.6091 26254.5
 14 08 2013  08 28  -20.9986 26023.4 -03476.5 -07.6092 26254.6
 14 08 2013  08 29  -20.9983 26023.4 -03476.6 -07.6093 26254.6
 14 08 2013  08 30  -20.9978 26023.4 -03476.6 -07.6093 26254.6
 14 08 2013  08 31  -20.9972 26023.4 -03476.5 -07.6092 26254.6
 14 08 2013  08 32  -20.9966 26023.3 -03476.5 -07.6092 26254.5
 14 08 2013  08 33  -20.9963 26023.3 -03476.6 -07.6093 26254.5
 14 08 2013  08 34  -20.9958 26023.3 -03476.6 -07.6094 26254.5
 14 08 2013  08 35  -20.9954 26023.3 -03476.6 -07.6094 26254.5
 14 08 2013  08 36  -20.9950 26023.3 -03476.6 -07.6095 26254.5
 14 08 2013  08 37  -20.9945 26023.2 -03476.7 -07.6095 26254.4
 14 08 2013  08 38  -20.9943 26023.2 -03476.7 -07.6096 26254.4
 14 08 2013  08 39  -20.9939 26023.3 -03476.7 -07.6097 26254.5
 14 08 2013  08 40  -20.9933 26023.3 -03476.8 -07.6097 26254.6
 14 08 2013  08 41  -20.9932 26023.3 -03476.9 -07.6099 26254.6
 14 08 2013  08 42  -20.9934 26023.4 -03477.0 -07.6101 26254.7
 14 08 2013  08 43  -20.9937 26023.5 -03477.0 -07.6103 26254.8
 14 08 2013  08 44  -20.9937 26023.5 -03477.1 -07.6104 26254.7
 14 08 2013  08 45  -20.9934 26023.5 -03477.0 -07.6103 26254.7
 14 08 2013  08 46  -20.9931 26023.5 -03477.1 -07.6103 26254.8
 14 08 2013  08 47  -20.9927 26023.5 -03477.0 -07.6103 26254.7
 14 08 2013  08 48  -20.9923 26023.5 -03477.0 -07.6103 26254.7
 14 08 2013  08 49  -20.9918 26023.5 -03477.0 -07.6101 26254.8
 14 08 2013  08 50  -20.9915 26023.5 -03477.1 -07.6104 26254.8
 14 08 2013  08 51  -20.9912 26023.5 -03477.1 -07.6105 26254.8
 14 08 2013  08 52  -20.9911 26023.5 -03477.3 -07.6108 26254.8
 14 08 2013  08 53  -20.9908 26023.5 -03477.4 -07.6110 26254.8
 14 08 2013  08 54  -20.9904 26023.5 -03477.5 -07.6112 26254.8
 14 08 2013  08 55  -20.9901 26023.5 -03477.5 -07.6114 26254.8
 14 08 2013  08 56  -20.9899 26023.4 -03477.7 -07.6116 26254.8
 14 08 2013  08 57  -20.9898 26023.4 -03477.7 -07.6118 26254.8
 14 08 2013  08 58  -20.9896 26023.3 -03477.7 -07.6118 26254.6
 14 08 2013  08 59  -20.9894 26023.3 -03477.9 -07.6122 26254.6
 14 08 2013  09 00  -20.9893 26023.2 -03478.0 -07.6124 26254.6
 14 08 2013  09 01  -20.9890 26023.4 -03478.2 -07.6127 26254.8
 14 08 2013  09 02  -20.9887 26023.3 -03478.2 -07.6129 26254.8
 14 08 2013  09 03  -20.9885 26023.4 -03478.4 -07.6132 26254.9
 14 08 2013  09 04  -20.9883 26023.3 -03478.4 -07.6133 26254.7
 14 08 2013  09 05  -20.9877 26023.2 -03478.4 -07.6134 26254.6
 14 08 2013  09 06  -20.9875 26023.3 -03478.6 -07.6136 26254.8
 14 08 2013  09 07  -20.9874 26023.4 -03478.8 -07.6140 26254.9
 14 08 2013  09 08  -20.9871 26023.4 -03478.8 -07.6142 26254.9
 14 08 2013  09 09  -20.9868 26023.3 -03478.9 -07.6143 26254.9
 14 08 2013  09 10  -20.9866 26023.4 -03479.0 -07.6145 26254.9
 14 08 2013  09 11  -20.9860 26023.4 -03479.1 -07.6147 26254.9
 14 08 2013  09 12  -20.9851 26023.3 -03479.1 -07.6148 26254.9
 14 08 2013  09 13  -20.9847 26023.4 -03479.2 -07.6150 26254.9
 14 08 2013  09 14  -20.9844 26023.3 -03479.3 -07.6152 26254.8
 14 08 2013  09 15  -20.9837 26023.3 -03479.4 -07.6154 26254.8
 14 08 2013  09 16  -20.9832 26023.1 -03479.4 -07.6155 26254.7
 14 08 2013  09 17  -20.9828 26023.1 -03479.5 -07.6157 26254.7
 14 08 2013  09 18  -20.9822 26023.0 -03479.5 -07.6157 26254.6
 14 08 2013  09 19  -20.9819 26023.0 -03479.6 -07.6160 26254.6
 14 08 2013  09 20  -20.9815 26022.9 -03479.7 -07.6163 26254.5
 14 08 2013  09 21  -20.9811 26022.9 -03479.8 -07.6165 26254.6
 14 08 2013  09 22  -20.9810 26023.0 -03480.0 -07.6169 26254.6
 14 08 2013  09 23  -20.9807 26022.9 -03480.1 -07.6172 26254.6
 14 08 2013  09 24  -20.9803 26022.9 -03480.2 -07.6174 26254.6
 14 08 2013  09 25  -20.9800 26022.8 -03480.4 -07.6177 26254.5
 14 08 2013  09 26  -20.9799 26022.8 -03480.5 -07.6181 26254.5
 14 08 2013  09 27  -20.9796 26022.8 -03480.7 -07.6184 26254.5
 14 08 2013  09 28  -20.9796 26022.8 -03480.9 -07.6188 26254.6
 14 08 2013  09 29  -20.9799 26022.8 -03481.0 -07.6192 26254.6
 14 08 2013  09 30  -20.9797 26022.8 -03481.3 -07.6196 26254.6
 14 08 2013  09 31  -20.9795 26022.7 -03481.3 -07.6198 26254.5
 14 08 2013  09 32  -20.9797 26022.8 -03481.5 -07.6202 26254.7
 14 08 2013  09 33  -20.9802 26022.9 -03481.8 -07.6207 26254.8
 14 08 2013  09 34  -20.9805 26022.9 -03481.9 -07.6211 26254.8
 14 08 2013  09 35  -20.9804 26023.0 -03482.1 -07.6213 26254.9
 14 08 2013  09 36  -20.9803 26023.0 -03482.1 -07.6215 26254.9
 14 08 2013  09 37  -20.9802 26023.1 -03482.2 -07.6217 26255.1
 14 08 2013  09 38  -20.9802 26023.2 -03482.4 -07.6219 26255.2
 14 08 2013  09 39  -20.9802 26023.2 -03482.5 -07.6221 26255.2
 14 08 2013  09 40  -20.9800 26023.3 -03482.6 -07.6223 26255.3
 14 08 2013  09 41  -20.9805 26023.3 -03482.6 -07.6225 26255.3
 14 08 2013  09 42  -20.9807 26023.3 -03482.7 -07.6226 26255.3
 14 08 2013  09 43  -20.9808 26023.5 -03482.9 -07.6229 26255.5
 14 08 2013  09 44  -20.9811 26023.6 -03483.0 -07.6231 26255.7
 14 08 2013  09 45  -20.9812 26023.6 -03483.0 -07.6232 26255.6
 14 08 2013  09 46  -20.9808 26023.5 -03483.1 -07.6233 26255.6
 14 08 2013  09 47  -20.9810 26023.6 -03483.1 -07.6234 26255.7
 14 08 2013  09 48  -20.9816 26023.8 -03483.3 -07.6238 26255.9
 14 08 2013  09 49  -20.9817 26023.7 -03483.4 -07.6240 26255.8
 14 08 2013  09 50  -20.9821 26023.7 -03483.5 -07.6243 26255.9
 14 08 2013  09 51  -20.9817 26023.9 -03483.6 -07.6244 26256.0
 14 08 2013  09 52  -20.9812 26024.1 -03483.7 -07.6246 26256.2
 14 08 2013  09 53  -20.9809 26024.1 -03483.8 -07.6247 26256.3
 14 08 2013  09 54  -20.9816 26024.3 -03484.0 -07.6250 26256.4
 14 08 2013  09 55  -20.9826 26024.6 -03484.2 -07.6255 26256.8
 14 08 2013  09 56  -20.9838 26024.8 -03484.3 -07.6257 26257.0
 14 08 2013  09 57  -20.9845 26024.8 -03484.3 -07.6257 26257.0
 14 08 2013  09 58  -20.9849 26024.9 -03484.4 -07.6258 26257.2
 14 08 2013  09 59  -20.9856 26025.2 -03484.5 -07.6259 26257.4
 14 08 2013  10 00  -20.9864 26025.2 -03484.5 -07.6260 26257.4
 14 08 2013  10 01  -20.9871 26025.5 -03484.7 -07.6263 26257.7
 14 08 2013  10 02  -20.9875 26025.5 -03484.7 -07.6263 26257.7
 14 08 2013  10 03  -20.9885 26025.4 -03484.8 -07.6265 26257.7
 14 08 2013  10 04  -20.9897 26025.6 -03484.9 -07.6267 26257.8
 14 08 2013  10 05  -20.9901 26025.8 -03485.0 -07.6269 26258.1
 14 08 2013  10 06  -20.9898 26026.0 -03485.2 -07.6272 26258.3
 14 08 2013  10 07  -20.9899 26026.1 -03485.2 -07.6273 26258.4
 14 08 2013  10 08  -20.9903 26026.2 -03485.3 -07.6273 26258.5
 14 08 2013  10 09  -20.9903 26026.5 -03485.4 -07.6276 26258.8
 14 08 2013  10 10  -20.9899 26026.7 -03485.5 -07.6276 26259.0
 14 08 2013  10 11  -20.9896 26027.1 -03485.6 -07.6278 26259.5
 14 08 2013  10 12  -20.9895 26027.5 -03485.7 -07.6279 26259.9
 14 08 2013  10 13  -20.9894 26028.0 -03485.8 -07.6280 26260.3
 14 08 2013  10 14  -20.9897 26028.3 -03486.0 -07.6282 26260.7
 14 08 2013  10 15  -20.9900 26028.6 -03486.1 -07.6284 26261.0
 14 08 2013  10 16  -20.9901 26029.0 -03486.2 -07.6285 26261.4
 14 08 2013  10 17  -20.9906 26029.2 -03486.3 -07.6286 26261.7
 14 08 2013  10 18  -20.9914 26029.4 -03486.3 -07.6286 26261.8
 14 08 2013  10 19  -20.9918 26029.7 -03486.4 -07.6287 26262.1
 14 08 2013  10 20  -20.9924 26029.9 -03486.4 -07.6286 26262.3
 14 08 2013  10 21  -20.9930 26030.1 -03486.5 -07.6288 26262.5
 14 08 2013  10 22  -20.9937 26030.3 -03486.5 -07.6288 26262.7
 14 08 2013  10 23  -20.9944 26030.5 -03486.6 -07.6289 26262.9
 14 08 2013  10 24  -20.9949 26030.6 -03486.6 -07.6289 26263.1
 14 08 2013  10 25  -20.9952 26030.8 -03486.7 -07.6291 26263.3
 14 08 2013  10 26  -20.9955 26031.3 -03486.9 -07.6293 26263.8
 14 08 2013  10 27  -20.9959 26031.7 -03487.0 -07.6294 26264.2
 14 08 2013  10 28  -20.9968 26031.8 -03487.0 -07.6295 26264.3
 14 08 2013  10 29  -20.9977 26032.0 -03487.1 -07.6296 26264.5
 14 08 2013  10 30  -20.9983 26032.3 -03487.2 -07.6298 26264.8
 14 08 2013  10 31  -20.9990 26032.6 -03487.3 -07.6299 26265.1
 14 08 2013  10 32  -20.9999 26032.9 -03487.4 -07.6300 26265.5
 14 08 2013  10 33  -21.0007 26033.3 -03487.6 -07.6302 26265.9
 14 08 2013  10 34  -21.0013 26033.6 -03487.6 -07.6301 26266.2
 14 08 2013  10 35  -21.0018 26033.8 -03487.5 -07.6299 26266.4
 14 08 2013  10 36  -21.0021 26034.0 -03487.4 -07.6297 26266.6
 14 08 2013  10 37  -21.0027 26034.0 -03487.4 -07.6296 26266.6
 14 08 2013  10 38  -21.0034 26034.2 -03487.3 -07.6293 26266.7
 14 08 2013  10 39  -21.0043 26034.3 -03487.2 -07.6292 26266.8
 14 08 2013  10 40  -21.0047 26034.4 -03487.2 -07.6291 26266.9
 14 08 2013  10 41  -21.0053 26034.6 -03487.2 -07.6290 26267.1
 14 08 2013  10 42  -21.0059 26034.8 -03487.2 -07.6290 26267.3
 14 08 2013  10 43  -21.0068 26035.0 -03487.2 -07.6289 26267.5
 14 08 2013  10 44  -21.0076 26035.2 -03487.1 -07.6287 26267.7
 14 08 2013  10 45  -21.0085 26035.4 -03487.1 -07.6286 26267.8
 14 08 2013  10 46  -21.0096 26035.5 -03487.1 -07.6285 26268.0
 14 08 2013  10 47  -21.0106 26035.8 -03487.0 -07.6283 26268.2
 14 08 2013  10 48  -21.0113 26036.1 -03487.0 -07.6282 26268.5
 14 08 2013  10 49  -21.0117 26036.3 -03487.0 -07.6280 26268.8
 14 08 2013  10 50  -21.0124 26036.6 -03486.9 -07.6278 26269.0
 14 08 2013  10 51  -21.0130 26036.6 -03486.8 -07.6275 26269.1
 14 08 2013  10 52  -21.0137 26036.8 -03486.7 -07.6274 26269.2
 14 08 2013  10 53  -21.0145 26037.1 -03486.7 -07.6272 26269.5
 14 08 2013  10 54  -21.0153 26037.4 -03486.7 -07.6272 26269.9
 14 08 2013  10 55  -21.0159 26037.7 -03486.7 -07.6270 26270.1
 14 08 2013  10 56  -21.0165 26038.1 -03486.7 -07.6269 26270.5
 14 08 2013  10 57  -21.0170 26038.6 -03486.7 -07.6268 26271.0
 14 08 2013  10 58  -21.0177 26039.0 -03486.7 -07.6266 26271.4
 14 08 2013  10 59  -21.0183 26039.5 -03486.7 -07.6265 26271.9
 14 08 2013  11 00  -21.0188 26040.0 -03486.7 -07.6263 26272.4
 14 08 2013  11 01  -21.0194 26040.4 -03486.6 -07.6261 26272.7
 14 08 2013  11 02  -21.0202 26040.8 -03486.6 -07.6259 26273.2
 14 08 2013  11 03  -21.0206 26041.3 -03486.5 -07.6255 26273.6
 14 08 2013  11 04  -21.0208 26041.5 -03486.3 -07.6250 26273.8
 14 08 2013  11 05  -21.0208 26042.0 -03486.2 -07.6247 26274.3
 14 08 2013  11 06  -21.0206 26042.6 -03486.1 -07.6243 26274.9
 14 08 2013  11 07  -21.0205 26043.1 -03486.0 -07.6239 26275.3
 14 08 2013  11 08  -21.0214 26043.4 -03485.8 -07.6235 26275.6
 14 08 2013  11 09  -21.0225 26043.7 -03485.7 -07.6232 26275.9
 14 08 2013  11 10  -21.0237 26043.9 -03485.6 -07.6229 26276.1
 14 08 2013  11 11  -21.0250 26044.1 -03485.5 -07.6225 26276.3
 14 08 2013  11 12  -21.0259 26044.5 -03485.4 -07.6223 26276.7
 14 08 2013  11 13  -21.0265 26044.9 -03485.3 -07.6220 26277.0
 14 08 2013  11 14  -21.0272 26045.3 -03485.2 -07.6217 26277.4
 14 08 2013  11 15  -21.0276 26045.6 -03485.1 -07.6213 26277.8
 14 08 2013  11 16  -21.0281 26045.9 -03484.9 -07.6209 26278.0
 14 08 2013  11 17  -21.0286 26046.2 -03484.8 -07.6206 26278.3
 14 08 2013  11 18  -21.0290 26046.5 -03484.7 -07.6202 26278.5
 14 08 2013  11 19  -21.0298 26046.5 -03484.5 -07.6198 26278.6
 14 08 2013  11 20  -21.0304 26046.8 -03484.4 -07.6195 26278.8
 14 08 2013  11 21  -21.0308 26047.3 -03484.4 -07.6193 26279.3
 14 08 2013  11 22  -21.0313 26047.7 -03484.4 -07.6191 26279.7
 14 08 2013  11 23  -21.0322 26047.9 -03484.3 -07.6188 26279.9
 14 08 2013  11 24  -21.0334 26048.1 -03484.1 -07.6185 26280.1
 14 08 2013  11 25  -21.0343 26048.5 -03484.1 -07.6184 26280.5
 14 08 2013  11 26  -21.0351 26049.0 -03484.2 -07.6183 26281.0
 14 08 2013  11 27  -21.0361 26049.5 -03484.2 -07.6182 26281.5
 14 08 2013  11 28  -21.0368 26050.1 -03484.1 -07.6179 26282.0
 14 08 2013  11 29  -21.0371 26050.7 -03484.1 -07.6177 26282.6
 14 08 2013  11 30  -21.0370 26051.2 -03484.0 -07.6173 26283.1
 14 08 2013  11 31  -21.0373 26051.6 -03483.8 -07.6168 26283.5
 14 08 2013  11 32  -21.0376 26052.0 -03483.7 -07.6165 26283.9
 14 08 2013  11 33  -21.0381 26052.3 -03483.6 -07.6162 26284.2
 14 08 2013  11 34  -21.0389 26052.3 -03483.4 -07.6157 26284.2
 14 08 2013  11 35  -21.0396 26052.6 -03483.4 -07.6155 26284.5
 14 08 2013  11 36  -21.0398 26053.1 -03483.3 -07.6153 26284.9
 14 08 2013  11 37  -21.0398 26053.6 -03483.3 -07.6151 26285.4
 14 08 2013  11 38  -21.0403 26053.9 -03483.2 -07.6148 26285.7
 14 08 2013  11 39  -21.0409 26054.2 -03483.2 -07.6146 26286.0
 14 08 2013  11 40  -21.0417 26054.7 -03483.2 -07.6145 26286.5
 14 08 2013  11 41  -21.0425 26055.1 -03483.2 -07.6144 26286.9
 14 08 2013  11 42  -21.0432 26055.5 -03483.1 -07.6142 26287.3
 14 08 2013  11 43  -21.0436 26056.1 -03483.1 -07.6140 26287.9
 14 08 2013  11 44  -21.0443 26056.5 -03483.1 -07.6139 26288.3
 14 08 2013  11 45  -21.0448 26056.9 -03483.1 -07.6137 26288.7
 14 08 2013  11 46  -21.0454 26057.4 -03483.0 -07.6135 26289.2
 14 08 2013  11 47  -21.0460 26057.9 -03483.0 -07.6133 26289.7
 14 08 2013  11 48  -21.0466 26058.4 -03483.0 -07.6131 26290.2
 14 08 2013  11 49  -21.0472 26058.8 -03482.9 -07.6127 26290.5
 14 08 2013  11 50  -21.0478 26059.1 -03482.8 -07.6124 26290.8
 14 08 2013  11 51  -21.0482 26059.4 -03482.6 -07.6120 26291.1
 14 08 2013  11 52  -21.0485 26059.8 -03482.5 -07.6117 26291.4
 14 08 2013  11 53  -21.0488 26060.1 -03482.4 -07.6114 26291.8
 14 08 2013  11 54  -21.0492 26060.5 -03482.4 -07.6111 26292.1
 14 08 2013  11 55  -21.0496 26060.9 -03482.3 -07.6108 26292.5
 14 08 2013  11 56  -21.0502 26061.3 -03482.2 -07.6105 26292.9
 14 08 2013  11 57  -21.0508 26061.8 -03482.1 -07.6102 26293.4
 14 08 2013  11 58  -21.0548 26061.7 -03481.8 -07.6095 26293.3
 14 08 2013  11 59  -21.0549 26062.2 -03481.7 -07.6091 26293.8
 14 08 2013  12 00  -21.0551 26062.8 -03481.6 -07.6088 26294.3
 14 08 2013  12 01  -21.0542 26063.3 -03481.6 -07.6086 26294.8
 14 08 2013  12 02  -21.0525 26064.1 -03481.7 -07.6087 26295.6
 14 08 2013  12 03  -21.0528 26064.6 -03481.6 -07.6084 26296.1
 14 08 2013  12 04  -21.0532 26065.1 -03481.6 -07.6081 26296.6
 14 08 2013  12 05  -21.0536 26065.6 -03481.5 -07.6078 26297.1
 14 08 2013  12 06  -21.0541 26066.0 -03481.4 -07.6075 26297.5
 14 08 2013  12 07  -21.0547 26066.5 -03481.4 -07.6072 26298.0
 14 08 2013  12 08  -21.0553 26067.0 -03481.3 -07.6069 26298.4
 14 08 2013  12 09  -21.0559 26067.4 -03481.2 -07.6066 26298.8
 14 08 2013  12 10  -21.0563 26067.9 -03481.1 -07.6062 26299.3
 14 08 2013  12 11  -21.0565 26068.4 -03481.0 -07.6058 26299.7
 14 08 2013  12 12  -21.0570 26068.8 -03480.9 -07.6055 26300.2
 14 08 2013  12 13  -21.0578 26069.0 -03480.7 -07.6050 26300.4
 14 08 2013  12 14  -21.0587 26069.3 -03480.5 -07.6046 26300.6
 14 08 2013  12 15  -21.0595 26069.6 -03480.4 -07.6042 26300.9
 14 08 2013  12 16  -21.0604 26069.8 -03480.2 -07.6038 26301.1
 14 08 2013  12 17  -21.0611 26070.3 -03480.2 -07.6035 26301.5
 14 08 2013  12 18  -21.0617 26070.8 -03480.1 -07.6032 26302.1
 14 08 2013  12 19  -21.0624 26071.4 -03480.0 -07.6029 26302.6
 14 08 2013  12 20  -21.0628 26072.1 -03480.0 -07.6026 26303.3
 14 08 2013  12 21  -21.0632 26072.6 -03479.9 -07.6022 26303.8
 14 08 2013  12 22  -21.0637 26073.2 -03479.8 -07.6019 26304.3
 14 08 2013  12 23  -21.0641 26073.8 -03479.7 -07.6015 26305.0
 14 08 2013  12 24  -21.0647 26074.4 -03479.6 -07.6012 26305.5
 14 08 2013  12 25  -21.0654 26075.0 -03479.5 -07.6007 26306.1
 14 08 2013  12 26  -21.0657 26075.2 -03479.2 -07.6001 26306.3
 14 08 2013  12 27  -21.0662 26075.5 -03479.0 -07.5995 26306.5
 14 08 2013  12 28  -21.0666 26075.9 -03478.9 -07.5992 26307.0
 14 08 2013  12 29  -21.0673 26076.2 -03478.8 -07.5988 26307.3
 14 08 2013  12 30  -21.0681 26076.6 -03478.7 -07.5986 26307.6
 14 08 2013  12 31  -21.0689 26077.0 -03478.6 -07.5982 26308.0
 14 08 2013  12 32  -21.0694 26077.4 -03478.5 -07.5978 26308.4
 14 08 2013  12 33  -21.0697 26077.9 -03478.4 -07.5975 26308.9
 14 08 2013  12 34  -21.0700 26078.3 -03478.2 -07.5970 26309.2
 14 08 2013  12 35  -21.0703 26078.6 -03478.0 -07.5964 26309.5
 14 08 2013  12 36  -21.0711 26079.1 -03477.9 -07.5962 26310.0
 14 08 2013  12 37  -21.0718 26079.4 -03477.7 -07.5957 26310.2
 14 08 2013  12 38  -21.0726 26079.8 -03477.6 -07.5953 26310.6
 14 08 2013  12 39  -21.0735 26079.9 -03477.4 -07.5947 26310.7
 14 08 2013  12 40  -21.0742 26080.3 -03477.2 -07.5943 26311.1
 14 08 2013  12 41  -21.0747 26080.5 -03477.0 -07.5938 26311.3
 14 08 2013  12 42  -21.0754 26080.8 -03476.8 -07.5933 26311.5
 14 08 2013  12 43  -21.0764 26080.9 -03476.6 -07.5929 26311.6
 14 08 2013  12 44  -21.0771 26081.0 -03476.5 -07.5925 26311.7
 14 08 2013  12 45  -21.0778 26081.5 -03476.4 -07.5923 26312.1
 14 08 2013  12 46  -21.0782 26081.9 -03476.3 -07.5919 26312.5
 14 08 2013  12 47  -21.0788 26082.0 -03476.1 -07.5914 26312.6
 14 08 2013  12 48  -21.0792 26082.1 -03476.0 -07.5911 26312.7
 14 08 2013  12 49  -21.0798 26082.4 -03475.8 -07.5907 26312.9
 14 08 2013  12 50  -21.0806 26082.5 -03475.7 -07.5905 26313.1
 14 08 2013  12 51  -21.0811 26082.8 -03475.7 -07.5902 26313.3
 14 08 2013  12 52  -21.0815 26083.3 -03475.7 -07.5901 26313.8
 14 08 2013  12 53  -21.0821 26083.8 -03475.7 -07.5900 26314.3
 14 08 2013  12 54  -21.0830 26084.3 -03475.7 -07.5899 26314.9
 14 08 2013  12 55  -21.0836 26084.8 -03475.6 -07.5896 26315.3
 14 08 2013  12 56  -21.0841 26085.2 -03475.6 -07.5894 26315.8
 14 08 2013  12 57  -21.0848 26085.6 -03475.4 -07.5889 26316.1
 14 08 2013  12 58  -21.0854 26086.0 -03475.4 -07.5887 26316.5
 14 08 2013  12 59  -21.0858 26086.4 -03475.3 -07.5884 26316.9
 14 08 2013  13 00  -21.0864 26086.9 -03475.3 -07.5882 26317.4
 14 08 2013  13 01  -21.0869 26087.3 -03475.2 -07.5879 26317.8
 14 08 2013  13 02  -21.0876 26087.6 -03475.1 -07.5876 26318.1
 14 08 2013  13 03  -21.0884 26087.8 -03474.9 -07.5872 26318.3
 14 08 2013  13 04  -21.0891 26088.3 -03474.8 -07.5868 26318.7
 14 08 2013  13 05  -21.0898 26088.8 -03474.8 -07.5866 26319.2
 14 08 2013  13 06  -21.0906 26089.2 -03474.7 -07.5863 26319.6
 14 08 2013  13 07  -21.0912 26089.6 -03474.5 -07.5858 26319.9
 14 08 2013  13 08  -21.0918 26090.0 -03474.4 -07.5854 26320.4
 14 08 2013  13 09  -21.0924 26090.4 -03474.2 -07.5849 26320.7
 14 08 2013  13 10  -21.0930 26090.7 -03474.0 -07.5844 26321.0
 14 08 2013  13 11  -21.0937 26090.9 -03473.8 -07.5839 26321.1
 14 08 2013  13 12  -21.0942 26091.0 -03473.6 -07.5833 26321.2
 14 08 2013  13 13  -21.0946 26091.3 -03473.4 -07.5828 26321.5
 14 08 2013  13 14  -21.0949 26091.7 -03473.3 -07.5825 26321.9
 14 08 2013  13 15  -21.0954 26092.1 -03473.2 -07.5823 26322.3
 14 08 2013  13 16  -21.0959 26092.6 -03473.1 -07.5819 26322.8
 14 08 2013  13 17  -21.0964 26093.0 -03473.0 -07.5815 26323.2
 14 08 2013  13 18  -21.0969 26093.4 -03472.8 -07.5810 26323.5
 14 08 2013  13 19  -21.0973 26093.5 -03472.5 -07.5803 26323.6
 14 08 2013  13 20  -21.0977 26093.7 -03472.3 -07.5797 26323.7
 14 08 2013  13 21  -21.0981 26094.0 -03472.1 -07.5792 26324.0
 14 08 2013  13 22  -21.0986 26094.2 -03471.8 -07.5787 26324.2
 14 08 2013  13 23  -21.0989 26094.4 -03471.6 -07.5782 26324.3
 14 08 2013  13 24  -21.0992 26094.8 -03471.5 -07.5778 26324.7
 14 08 2013  13 25  -21.0996 26095.2 -03471.4 -07.5775 26325.1
 14 08 2013  13 26  -21.1002 26095.5 -03471.2 -07.5770 26325.3
 14 08 2013  13 27  -21.1007 26095.7 -03471.0 -07.5764 26325.5
 14 08 2013  13 28  -21.1014 26095.9 -03470.8 -07.5759 26325.7
 14 08 2013  13 29  -21.1019 26096.1 -03470.6 -07.5754 26325.9
 14 08 2013  13 30  -21.1025 26096.2 -03470.3 -07.5748 26326.0
 14 08 2013  13 31  -21.1030 26096.4 -03470.1 -07.5742 26326.1
 14 08 2013  13 32  -21.1036 26096.6 -03469.9 -07.5737 26326.2
 14 08 2013  13 33  -21.1044 26096.8 -03469.7 -07.5734 26326.5
 14 08 2013  13 34  -21.1054 26097.2 -03469.6 -07.5729 26326.8
 14 08 2013  13 35  -21.1062 26097.4 -03469.3 -07.5724 26327.0
 14 08 2013  13 36  -21.1067 26097.6 -03469.1 -07.5718 26327.2
 14 08 2013  13 37  -21.1068 26097.9 -03468.9 -07.5713 26327.5
 14 08 2013  13 38  -21.1070 26098.1 -03468.7 -07.5708 26327.6
 14 08 2013  13 39  -21.1074 26098.3 -03468.5 -07.5703 26327.8
 14 08 2013  13 40  -21.1079 26098.7 -03468.4 -07.5700 26328.1
 14 08 2013  13 41  -21.1084 26099.0 -03468.2 -07.5695 26328.4
 14 08 2013  13 42  -21.1089 26099.4 -03468.0 -07.5690 26328.8
 14 08 2013  13 43  -21.1095 26099.7 -03467.9 -07.5686 26329.1
 14 08 2013  13 44  -21.1101 26100.1 -03467.8 -07.5682 26329.4
 14 08 2013  13 45  -21.1105 26100.3 -03467.6 -07.5677 26329.7
 14 08 2013  13 46  -21.1110 26100.4 -03467.3 -07.5670 26329.7
 14 08 2013  13 47  -21.1113 26100.4 -03467.0 -07.5664 26329.7
 14 08 2013  13 48  -21.1118 26100.8 -03466.8 -07.5659 26330.0
 14 08 2013  13 49  -21.1126 26101.0 -03466.5 -07.5653 26330.2
 14 08 2013  13 50  -21.1136 26101.1 -03466.3 -07.5648 26330.3
 14 08 2013  13 51  -21.1143 26101.2 -03466.0 -07.5641 26330.3
 14 08 2013  13 52  -21.1150 26101.3 -03465.8 -07.5636 26330.4
 14 08 2013  13 53  -21.1156 26101.2 -03465.5 -07.5630 26330.3
 14 08 2013  13 54  -21.1161 26101.1 -03465.2 -07.5624 26330.1
 14 08 2013  13 55  -21.1167 26101.0 -03465.0 -07.5619 26330.0
 14 08 2013  13 56  -21.1174 26101.1 -03464.8 -07.5615 26330.1
 14 08 2013  13 57  -21.1181 26101.4 -03464.7 -07.5612 26330.3
 14 08 2013  13 58  -21.1187 26101.5 -03464.5 -07.5608 26330.4
 14 08 2013  13 59  -21.1191 26101.6 -03464.3 -07.5602 26330.5
 14 08 2013  14 00  -21.1193 26101.8 -03464.1 -07.5598 26330.6
 14 08 2013  14 01  -21.1196 26102.2 -03463.9 -07.5594 26331.0
 14 08 2013  14 02  -21.1199 26102.4 -03463.8 -07.5590 26331.2
 14 08 2013  14 03  -21.1199 26102.4 -03463.5 -07.5583 26331.2
 14 08 2013  14 04  -21.1198 26102.3 -03463.2 -07.5577 26331.1
 14 08 2013  14 05  -21.1196 26102.3 -03463.0 -07.5572 26331.0
 14 08 2013  14 06  -21.1196 26102.5 -03462.8 -07.5568 26331.1
 14 08 2013  14 07  -21.1198 26102.8 -03462.7 -07.5565 26331.5
 14 08 2013  14 08  -21.1201 26103.1 -03462.7 -07.5563 26331.8
 14 08 2013  14 09  -21.1202 26103.4 -03462.6 -07.5560 26332.0
 14 08 2013  14 10  -21.1201 26103.5 -03462.4 -07.5556 26332.1
 14 08 2013  14 11  -21.1201 26104.0 -03462.4 -07.5554 26332.6
 14 08 2013  14 12  -21.1207 26104.8 -03462.4 -07.5554 26333.4
 14 08 2013  14 13  -21.1208 26105.4 -03462.3 -07.5550 26334.0
 14 08 2013  14 14  -21.1207 26105.6 -03462.0 -07.5542 26334.1
 14 08 2013  14 15  -21.1202 26105.3 -03461.5 -07.5532 26333.8
 14 08 2013  14 16  -21.1200 26104.9 -03461.0 -07.5523 26333.3
 14 08 2013  14 17  -21.1196 26104.4 -03460.5 -07.5514 26332.7
 14 08 2013  14 18  -21.1190 26103.5 -03460.0 -07.5505 26331.8
 14 08 2013  14 19  -21.1189 26102.8 -03459.6 -07.5497 26331.0
 14 08 2013  14 20  -21.1187 26101.8 -03459.1 -07.5490 26330.0
 14 08 2013  14 21  -21.1182 26100.9 -03458.7 -07.5485 26329.1
 14 08 2013  14 22  -21.1179 26100.3 -03458.5 -07.5482 26328.5
 14 08 2013  14 23  -21.1177 26100.2 -03458.5 -07.5482 26328.3
 14 08 2013  14 24  -21.1177 26099.6 -03458.3 -07.5480 26327.7
 14 08 2013  14 25  -21.1174 26099.2 -03458.2 -07.5479 26327.3
 14 08 2013  14 26  -21.1174 26099.3 -03458.3 -07.5481 26327.5
 14 08 2013  14 27  -21.1175 26099.5 -03458.3 -07.5480 26327.6
 14 08 2013  14 28  -21.1174 26099.5 -03458.3 -07.5480 26327.6
 14 08 2013  14 29  -21.1173 26099.5 -03458.2 -07.5478 26327.7
 14 08 2013  14 30  -21.1168 26099.7 -03458.2 -07.5476 26327.9
 14 08 2013  14 31  -21.1162 26099.7 -03458.1 -07.5474 26327.8
 14 08 2013  14 32  -21.1161 26099.8 -03458.0 -07.5473 26327.9
 14 08 2013  14 33  -21.1165 26100.4 -03458.2 -07.5475 26328.5
 14 08 2013  14 34  -21.1167 26100.7 -03458.1 -07.5472 26328.8
 14 08 2013  14 35  -21.1169 26101.3 -03458.1 -07.5470 26329.4
 14 08 2013  14 36  -21.1171 26101.9 -03458.0 -07.5466 26330.0
 14 08 2013  14 37  -21.1169 26102.2 -03457.7 -07.5458 26330.2
 14 08 2013  14 38  -21.1166 26102.6 -03457.4 -07.5452 26330.6
 14 08 2013  14 39  -21.1165 26102.8 -03457.1 -07.5443 26330.8
 14 08 2013  14 40  -21.1164 26102.4 -03456.5 -07.5432 26330.3
 14 08 2013  14 41  -21.1164 26102.7 -03456.3 -07.5427 26330.5
 14 08 2013  14 42  -21.1159 26101.9 -03455.6 -07.5413 26329.6
 14 08 2013  14 43  -21.1156 26101.4 -03455.1 -07.5405 26329.1
 14 08 2013  14 44  -21.1154 26100.8 -03454.6 -07.5397 26328.4
 14 08 2013  14 45  -21.1156 26100.4 -03454.3 -07.5391 26328.0
 14 08 2013  14 46  -21.1159 26099.8 -03453.9 -07.5384 26327.4
 14 08 2013  14 47  -21.1161 26099.5 -03453.5 -07.5377 26327.0
 14 08 2013  14 48  -21.1165 26099.2 -03453.2 -07.5371 26326.6
 14 08 2013  14 49  -21.1165 26099.0 -03452.9 -07.5364 26326.4
 14 08 2013  14 50  -21.1164 26098.7 -03452.6 -07.5358 26326.1
 14 08 2013  14 51  -21.1162 26098.3 -03452.2 -07.5351 26325.6
 14 08 2013  14 52  -21.1160 26097.9 -03451.8 -07.5344 26325.2
 14 08 2013  14 53  -21.1160 26097.8 -03451.5 -07.5339 26325.1
 14 08 2013  14 54  -21.1159 26097.7 -03451.3 -07.5333 26324.9
 14 08 2013  14 55  -21.1159 26097.5 -03451.0 -07.5328 26324.6
 14 08 2013  14 56  -21.1159 26097.4 -03450.7 -07.5322 26324.6
 14 08 2013  14 57  -21.1156 26097.2 -03450.4 -07.5315 26324.3
 14 08 2013  14 58  -21.1152 26096.8 -03449.9 -07.5306 26323.9
 14 08 2013  14 59  -21.1149 26096.7 -03449.6 -07.5300 26323.7
 14 08 2013  15 00  -21.1146 26097.0 -03449.4 -07.5295 26324.0
 14 08 2013  15 01  -21.1144 26097.1 -03449.1 -07.5289 26324.1
 14 08 2013  15 02  -21.1139 26097.1 -03448.7 -07.5280 26324.0
 14 08 2013  15 03  -21.1135 26097.3 -03448.4 -07.5273 26324.1
 14 08 2013  15 04  -21.1130 26097.5 -03448.2 -07.5267 26324.3
 14 08 2013  15 05  -21.1124 26097.6 -03447.8 -07.5259 26324.4
 14 08 2013  15 06  -21.1117 26097.7 -03447.5 -07.5252 26324.4
 14 08 2013  15 07  -21.1106 26097.7 -03447.0 -07.5242 26324.4
 14 08 2013  15 08  -21.1093 26098.1 -03446.8 -07.5235 26324.7
 14 08 2013  15 09  -21.1081 26098.4 -03446.5 -07.5229 26324.9
 14 08 2013  15 10  -21.1068 26098.4 -03446.3 -07.5223 26325.0
 14 08 2013  15 11  -21.1057 26098.6 -03446.0 -07.5216 26325.1
 14 08 2013  15 12  -21.1046 26099.3 -03445.9 -07.5213 26325.8
 14 08 2013  15 13  -21.1036 26099.8 -03445.7 -07.5208 26326.3
 14 08 2013  15 14  -21.1028 26100.3 -03445.6 -07.5203 26326.7
 14 08 2013  15 15  -21.1018 26100.6 -03445.2 -07.5195 26327.0
 14 08 2013  15 16  -21.1002 26100.6 -03444.8 -07.5185 26326.9
 14 08 2013  15 17  -21.0983 26100.3 -03444.2 -07.5174 26326.6
 14 08 2013  15 18  -21.0962 26099.9 -03443.7 -07.5163 26326.1
 14 08 2013  15 19  -21.0937 26099.2 -03443.1 -07.5152 26325.3
 14 08 2013  15 20  -21.0913 26098.5 -03442.6 -07.5144 26324.6
 14 08 2013  15 21  -21.0895 26098.3 -03442.4 -07.5140 26324.3
 14 08 2013  15 22  -21.0881 26098.2 -03442.3 -07.5138 26324.2
 14 08 2013  15 23  -21.0866 26098.0 -03442.1 -07.5135 26324.1
 14 08 2013  15 24  -21.0853 26097.9 -03441.9 -07.5131 26323.9
 14 08 2013  15 25  -21.0841 26098.0 -03441.8 -07.5129 26324.0
 14 08 2013  15 26  -21.0831 26098.2 -03441.7 -07.5126 26324.2
 14 08 2013  15 27  -21.0817 26098.3 -03441.6 -07.5122 26324.3
 14 08 2013  15 28  -21.0799 26098.3 -03441.4 -07.5118 26324.2
 14 08 2013  15 29  -21.0785 26098.3 -03441.2 -07.5115 26324.2
 14 08 2013  15 30  -21.0772 26098.5 -03441.2 -07.5113 26324.3
 14 08 2013  15 31  -21.0761 26098.3 -03441.0 -07.5110 26324.2
 14 08 2013  15 32  -21.0742 26098.2 -03440.8 -07.5105 26324.1
 14 08 2013  15 33  -21.0730 26098.2 -03440.6 -07.5102 26324.0
 14 08 2013  15 34  -21.0714 26098.0 -03440.4 -07.5097 26323.7
 14 08 2013  15 35  -21.0695 26097.2 -03440.0 -07.5091 26323.0
 14 08 2013  15 36  -21.0676 26096.4 -03439.6 -07.5085 26322.1
 14 08 2013  15 37  -21.0663 26096.0 -03439.5 -07.5084 26321.7
 14 08 2013  15 38  -21.0647 26095.5 -03439.3 -07.5081 26321.2
 14 08 2013  15 39  -21.0628 26094.9 -03439.1 -07.5078 26320.5
 14 08 2013  15 40  -21.0605 26094.0 -03438.8 -07.5074 26319.6
 14 08 2013  15 41  -21.0583 26093.3 -03438.7 -07.5074 26318.9
 14 08 2013  15 42  -21.0563 26092.9 -03438.7 -07.5076 26318.5
 14 08 2013  15 43  -21.0545 26092.6 -03438.8 -07.5078 26318.2
 14 08 2013  15 44  -21.0526 26092.4 -03438.9 -07.5080 26318.0
 14 08 2013  15 45  -21.0509 26092.3 -03439.0 -07.5083 26318.0
 14 08 2013  15 46  -21.0493 26092.3 -03439.1 -07.5086 26318.0
 14 08 2013  15 47  -21.0473 26092.0 -03439.1 -07.5087 26317.7
 14 08 2013  15 48  -21.0450 26091.7 -03439.1 -07.5088 26317.4
 14 08 2013  15 49  -21.0432 26091.7 -03439.4 -07.5093 26317.4
 14 08 2013  15 50  -21.0420 26091.6 -03439.6 -07.5099 26317.4
 14 08 2013  15 51  -21.0405 26091.5 -03439.8 -07.5103 26317.2
 14 08 2013  15 52  -21.0390 26091.6 -03440.0 -07.5108 26317.4
 14 08 2013  15 53  -21.0381 26092.0 -03440.4 -07.5115 26317.9
 14 08 2013  15 54  -21.0369 26092.2 -03440.6 -07.5119 26318.1
 14 08 2013  15 55  -21.0349 26091.9 -03440.5 -07.5117 26317.7
 14 08 2013  15 56  -21.0329 26091.5 -03440.5 -07.5118 26317.3
 14 08 2013  15 57  -21.0317 26091.0 -03440.6 -07.5122 26316.9
 14 08 2013  15 58  -21.0299 26090.2 -03440.6 -07.5124 26316.1
 14 08 2013  15 59  -21.0286 26089.6 -03440.7 -07.5128 26315.5
 14 08 2013  16 00  -21.0278 26089.1 -03440.8 -07.5133 26315.0
 14 08 2013  16 01  -21.0266 26088.6 -03441.0 -07.5138 26314.6
 14 08 2013  16 02  -21.0255 26088.0 -03441.1 -07.5142 26314.0
 14 08 2013  16 03  -21.0244 26087.5 -03441.4 -07.5149 26313.5
 14 08 2013  16 04  -21.0236 26087.4 -03441.8 -07.5159 26313.5
 14 08 2013  16 05  -21.0232 26087.8 -03442.4 -07.5170 26313.9
 14 08 2013  16 06  -21.0230 26088.4 -03443.1 -07.5182 26314.6
 14 08 2013  16 07  -21.0223 26089.1 -03443.6 -07.5191 26315.4
 14 08 2013  16 08  -21.0222 26089.9 -03444.1 -07.5202 26316.3
 14 08 2013  16 09  -21.0220 26090.5 -03444.5 -07.5208 26316.9
 14 08 2013  16 10  -21.0215 26090.9 -03444.8 -07.5212 26317.3
 14 08 2013  16 11  -21.0211 26090.9 -03444.9 -07.5214 26317.3
 14 08 2013  16 12  -21.0199 26090.3 -03444.7 -07.5212 26316.7
 14 08 2013  16 13  -21.0186 26089.5 -03444.6 -07.5213 26316.0
 14 08 2013  16 14  -21.0178 26088.7 -03444.6 -07.5215 26315.1
 14 08 2013  16 15  -21.0172 26087.8 -03444.6 -07.5218 26314.3
 14 08 2013  16 16  -21.0170 26087.2 -03444.8 -07.5223 26313.6
 14 08 2013  16 17  -21.0166 26086.5 -03444.9 -07.5227 26312.9
 14 08 2013  16 18  -21.0163 26086.0 -03445.2 -07.5235 26312.5
 14 08 2013  16 19  -21.0151 26084.8 -03445.2 -07.5238 26311.4
 14 08 2013  16 20  -21.0144 26084.4 -03445.6 -07.5248 26311.0
 14 08 2013  16 21  -21.0150 26085.0 -03446.4 -07.5264 26311.7
 14 08 2013  16 22  -21.0155 26085.5 -03447.0 -07.5276 26312.3
 14 08 2013  16 23  -21.0169 26086.4 -03447.6 -07.5287 26313.2
 14 08 2013  16 24  -21.0179 26086.6 -03447.8 -07.5291 26313.4
 14 08 2013  16 25  -21.0187 26087.0 -03448.0 -07.5293 26313.8
 14 08 2013  16 26  -21.0194 26087.4 -03448.1 -07.5294 26314.2
 14 08 2013  16 27  -21.0199 26087.4 -03448.0 -07.5292 26314.3
 14 08 2013  16 28  -21.0209 26088.5 -03448.3 -07.5295 26315.4
 14 08 2013  16 29  -21.0213 26089.1 -03448.4 -07.5296 26316.1
 14 08 2013  16 30  -21.0203 26088.8 -03448.1 -07.5291 26315.7
 14 08 2013  16 31  -21.0186 26087.8 -03447.7 -07.5284 26314.7
 14 08 2013  16 32  -21.0176 26086.8 -03447.3 -07.5279 26313.6
 14 08 2013  16 33  -21.0171 26085.6 -03447.2 -07.5279 26312.4
 14 08 2013  16 34  -21.0163 26084.1 -03446.9 -07.5278 26310.9
 14 08 2013  16 35  -21.0147 26082.6 -03446.6 -07.5276 26309.3
 14 08 2013  16 36  -21.0137 26081.5 -03446.7 -07.5281 26308.2
 14 08 2013  16 37  -21.0133 26080.8 -03447.0 -07.5290 26307.6
 14 08 2013  16 38  -21.0129 26079.9 -03447.2 -07.5296 26306.8
 14 08 2013  16 39  -21.0125 26079.3 -03447.5 -07.5305 26306.2
 14 08 2013  16 40  -21.0124 26078.9 -03447.9 -07.5314 26305.8
 14 08 2013  16 41  -21.0123 26078.5 -03448.4 -07.5325 26305.5
 14 08 2013  16 42  -21.0123 26077.9 -03448.7 -07.5334 26305.0
 14 08 2013  16 43  -21.0128 26077.3 -03449.0 -07.5343 26304.4
 14 08 2013  16 44  -21.0139 26077.0 -03449.4 -07.5352 26304.2
 14 08 2013  16 45  -21.0150 26076.7 -03449.6 -07.5358 26303.9
 14 08 2013  16 46  -21.0159 26076.7 -03449.9 -07.5364 26303.9
 14 08 2013  16 47  -21.0168 26076.6 -03450.1 -07.5369 26303.9
 14 08 2013  16 48  -21.0174 26076.2 -03450.2 -07.5371 26303.5
 14 08 2013  16 49  -21.0175 26075.7 -03450.2 -07.5372 26303.0
 14 08 2013  16 50  -21.0179 26075.1 -03450.2 -07.5375 26302.4
 14 08 2013  16 51  -21.0185 26074.7 -03450.4 -07.5380 26302.0
 14 08 2013  16 52  -21.0192 26074.3 -03450.6 -07.5386 26301.7
 14 08 2013  16 53  -21.0196 26073.7 -03450.6 -07.5388 26301.1
 14 08 2013  16 54  -21.0204 26073.6 -03450.8 -07.5391 26301.0
 14 08 2013  16 55  -21.0213 26074.5 -03451.2 -07.5397 26301.9
 14 08 2013  16 56  -21.0208 26073.7 -03450.7 -07.5389 26301.1
 14 08 2013  16 57  -21.0201 26073.1 -03450.6 -07.5389 26300.4
 14 08 2013  16 58  -21.0202 26072.4 -03450.8 -07.5395 26299.8
 14 08 2013  16 59  -21.0209 26072.4 -03451.3 -07.5406 26299.8
 14 08 2013  17 00  -21.0216 26072.3 -03451.6 -07.5413 26299.8
 14 08 2013  17 01  -21.0215 26071.3 -03451.5 -07.5413 26298.8
 14 08 2013  17 02  -21.0218 26070.6 -03451.4 -07.5414 26298.1
 14 08 2013  17 03  -21.0216 26069.4 -03451.2 -07.5413 26296.8
 14 08 2013  17 04  -21.0213 26068.6 -03451.4 -07.5418 26296.1
 14 08 2013  17 05  -21.0204 26067.7 -03451.5 -07.5423 26295.2
 14 08 2013  17 06  -21.0183 26066.4 -03451.6 -07.5430 26293.9
 14 08 2013  17 07  -21.0164 26065.2 -03452.0 -07.5441 26292.7
 14 08 2013  17 08  -21.0148 26064.5 -03452.6 -07.5456 26292.2
 14 08 2013  17 09  -21.0169 26066.9 -03454.4 -07.5489 26294.8
 14 08 2013  17 10  -21.0211 26070.1 -03456.2 -07.5519 26298.2
 14 08 2013  17 11  -21.0230 26071.3 -03456.7 -07.5526 26299.5
 14 08 2013  17 12  -21.0220 26070.1 -03456.0 -07.5515 26298.2
 14 08 2013  17 13  -21.0192 26067.6 -03455.0 -07.5500 26295.5
 14 08 2013  17 14  -21.0174 26065.7 -03454.7 -07.5500 26293.6
 14 08 2013  17 15  -21.0162 26064.3 -03455.0 -07.5508 26292.3
 14 08 2013  17 16  -21.0154 26063.4 -03455.4 -07.5520 26291.5
 14 08 2013  17 17  -21.0155 26063.3 -03456.0 -07.5534 26291.4
 14 08 2013  17 18  -21.0162 26063.6 -03456.8 -07.5550 26291.8
 14 08 2013  17 19  -21.0165 26063.4 -03457.3 -07.5561 26291.7
 14 08 2013  17 20  -21.0160 26062.9 -03457.5 -07.5567 26291.3
 14 08 2013  17 21  -21.0159 26063.0 -03458.0 -07.5578 26291.4
 14 08 2013  17 22  -21.0160 26063.0 -03458.5 -07.5589 26291.4
 14 08 2013  17 23  -21.0153 26062.4 -03458.8 -07.5596 26290.9
 14 08 2013  17 24  -21.0147 26062.1 -03459.1 -07.5604 26290.6
 14 08 2013  17 25  -21.0144 26061.8 -03459.5 -07.5614 26290.4
 14 08 2013  17 26  -21.0145 26061.5 -03460.0 -07.5624 26290.2
 14 08 2013  17 27  -21.0140 26061.0 -03460.3 -07.5632 26289.8
 14 08 2013  17 28  -21.0136 26060.7 -03460.6 -07.5640 26289.4
 14 08 2013  17 29  -21.0139 26060.6 -03461.1 -07.5651 26289.5
 14 08 2013  17 30  -21.0137 26060.2 -03461.3 -07.5657 26289.1
 14 08 2013  17 31  -21.0139 26060.2 -03461.7 -07.5666 26289.1
 14 08 2013  17 32  -21.0139 26059.6 -03461.9 -07.5671 26288.5
 14 08 2013  17 33  -21.0134 26058.7 -03461.9 -07.5674 26287.7
 14 08 2013  17 34  -21.0128 26057.8 -03462.0 -07.5678 26286.8
 14 08 2013  17 35  -21.0125 26057.4 -03462.3 -07.5686 26286.4
 14 08 2013  17 36  -21.0121 26057.4 -03462.7 -07.5695 26286.4
 14 08 2013  17 37  -21.0127 26058.0 -03463.5 -07.5711 26287.1
 14 08 2013  17 38  -21.0133 26058.3 -03464.0 -07.5721 26287.5
 14 08 2013  17 39  -21.0130 26058.1 -03464.2 -07.5726 26287.3
 14 08 2013  17 40  -21.0126 26057.4 -03464.3 -07.5729 26286.6
 14 08 2013  17 41  -21.0121 26056.9 -03464.4 -07.5734 26286.2
 14 08 2013  17 42  -21.0116 26056.4 -03464.6 -07.5740 26285.7
 14 08 2013  17 43  -21.0121 26056.3 -03465.1 -07.5750 26285.7
 14 08 2013  17 44  -21.0120 26055.9 -03465.4 -07.5757 26285.3
 14 08 2013  17 45  -21.0121 26055.8 -03465.8 -07.5766 26285.3
 14 08 2013  17 46  -21.0119 26055.4 -03466.1 -07.5774 26284.9
 14 08 2013  17 47  -21.0120 26055.0 -03466.3 -07.5781 26284.6
 14 08 2013  17 48  -21.0116 26054.7 -03466.6 -07.5788 26284.3
 14 08 2013  17 49  -21.0115 26054.3 -03467.0 -07.5797 26283.9
 14 08 2013  17 50  -21.0112 26054.1 -03467.5 -07.5808 26283.8
 14 08 2013  17 51  -21.0109 26053.6 -03467.8 -07.5816 26283.4
 14 08 2013  17 52  -21.0109 26053.6 -03468.3 -07.5827 26283.5
 14 08 2013  17 53  -21.0108 26053.6 -03468.8 -07.5837 26283.5
 14 08 2013  17 54  -21.0112 26053.8 -03469.3 -07.5848 26283.8
 14 08 2013  17 55  -21.0114 26053.4 -03469.5 -07.5854 26283.4
 14 08 2013  17 56  -21.0110 26052.7 -03469.6 -07.5858 26282.8
 14 08 2013  17 57  -21.0111 26052.4 -03469.9 -07.5866 26282.5
 14 08 2013  17 58  -21.0109 26051.7 -03470.1 -07.5871 26281.8
 14 08 2013  17 59  -21.0108 26051.3 -03470.4 -07.5880 26281.5
 14 08 2013  18 00  -21.0107 26051.1 -03470.9 -07.5891 26281.3
 14 08 2013  18 01  -21.0111 26050.9 -03471.4 -07.5903 26281.2
 14 08 2013  18 02  -21.0110 26050.5 -03471.8 -07.5911 26280.8
 14 08 2013  18 03  -21.0115 26050.7 -03472.3 -07.5923 26281.1
 14 08 2013  18 04  -21.0120 26050.7 -03472.9 -07.5934 26281.2
 14 08 2013  18 05  -21.0127 26050.4 -03473.1 -07.5941 26280.9
 14 08 2013  18 06  -21.0131 26050.3 -03473.4 -07.5947 26280.8
 14 08 2013  18 07  -21.0130 26050.0 -03473.6 -07.5952 26280.5
 14 08 2013  18 08  -21.0136 26049.9 -03474.0 -07.5960 26280.5
 14 08 2013  18 09  -21.0134 26049.4 -03474.1 -07.5965 26280.0
 14 08 2013  18 10  -21.0136 26049.2 -03474.5 -07.5973 26279.9
 14 08 2013  18 11  -21.0138 26049.2 -03474.8 -07.5981 26279.9
 14 08 2013  18 12  -21.0140 26049.0 -03475.1 -07.5987 26279.8
 14 08 2013  18 13  -21.0143 26049.1 -03475.4 -07.5995 26279.9
 14 08 2013  18 14  -21.0145 26049.2 -03475.8 -07.6001 26280.0
 14 08 2013  18 15  -21.0143 26048.9 -03475.9 -07.6004 26279.8
 14 08 2013  18 16  -21.0143 26048.6 -03476.1 -07.6009 26279.6
 14 08 2013  18 17  -21.0141 26048.3 -03476.3 -07.6014 26279.2
 14 08 2013  18 18  -21.0142 26048.2 -03476.5 -07.6021 26279.2
 14 08 2013  18 19  -21.0141 26047.9 -03476.6 -07.6023 26278.9
 14 08 2013  18 20  -21.0141 26047.7 -03476.8 -07.6029 26278.7
 14 08 2013  18 21  -21.0139 26047.5 -03477.0 -07.6033 26278.5
 14 08 2013  18 22  -21.0138 26047.2 -03477.2 -07.6038 26278.3
 14 08 2013  18 23  -21.0141 26047.2 -03477.5 -07.6045 26278.3
 14 08 2013  18 24  -21.0144 26047.0 -03477.6 -07.6048 26278.2
 14 08 2013  18 25  -21.0147 26047.0 -03477.8 -07.6052 26278.2
 14 08 2013  18 26  -21.0150 26046.9 -03477.9 -07.6054 26278.1
 14 08 2013  18 27  -21.0152 26046.7 -03478.0 -07.6056 26277.9
 14 08 2013  18 28  -21.0153 26046.4 -03478.0 -07.6057 26277.6
 14 08 2013  18 29  -21.0152 26046.2 -03478.1 -07.6060 26277.4
 14 08 2013  18 30  -21.0149 26045.9 -03478.3 -07.6065 26277.2
 14 08 2013  18 31  -21.0147 26045.7 -03478.4 -07.6067 26276.9
 14 08 2013  18 32  -21.0148 26045.7 -03478.7 -07.6074 26277.0
 14 08 2013  18 33  -21.0144 26045.4 -03478.7 -07.6075 26276.6
 14 08 2013  18 34  -21.0145 26045.3 -03478.9 -07.6080 26276.6
 14 08 2013  18 35  -21.0143 26045.1 -03479.0 -07.6083 26276.4
 14 08 2013  18 36  -21.0141 26045.1 -03479.3 -07.6089 26276.4
 14 08 2013  18 37  -21.0141 26045.1 -03479.5 -07.6094 26276.5
 14 08 2013  18 38  -21.0141 26044.9 -03479.7 -07.6098 26276.4
 14 08 2013  18 39  -21.0138 26044.3 -03479.5 -07.6096 26275.7
 14 08 2013  18 40  -21.0138 26043.8 -03479.5 -07.6097 26275.2
 14 08 2013  18 41  -21.0134 26043.1 -03479.3 -07.6095 26274.5
 14 08 2013  18 42  -21.0134 26042.9 -03479.4 -07.6098 26274.3
 14 08 2013  18 43  -21.0141 26043.1 -03479.8 -07.6106 26274.6
 14 08 2013  18 44  -21.0141 26043.0 -03480.0 -07.6110 26274.5
 14 08 2013  18 45  -21.0136 26042.3 -03479.9 -07.6111 26273.8
 14 08 2013  18 46  -21.0134 26041.7 -03479.9 -07.6112 26273.1
 14 08 2013  18 47  -21.0136 26041.1 -03479.9 -07.6113 26272.6
 14 08 2013  18 48  -21.0138 26040.9 -03480.0 -07.6116 26272.4
 14 08 2013  18 49  -21.0137 26040.9 -03480.1 -07.6118 26272.4
 14 08 2013  18 50  -21.0137 26040.8 -03480.2 -07.6121 26272.3
 14 08 2013  18 51  -21.0134 26040.9 -03480.4 -07.6125 26272.4
 14 08 2013  18 52  -21.0135 26041.2 -03480.7 -07.6131 26272.7
 14 08 2013  18 53  -21.0142 26041.6 -03481.0 -07.6137 26273.3
 14 08 2013  18 54  -21.0151 26041.7 -03481.1 -07.6139 26273.4
 14 08 2013  18 55  -21.0160 26042.0 -03481.2 -07.6138 26273.6
 14 08 2013  18 56  -21.0167 26042.3 -03481.2 -07.6138 26273.9
 14 08 2013  18 57  -21.0167 26042.2 -03481.0 -07.6135 26273.8
 14 08 2013  18 58  -21.0167 26041.9 -03480.9 -07.6132 26273.5
 14 08 2013  18 59  -21.0171 26041.7 -03480.8 -07.6131 26273.3
 14 08 2013  19 00  -21.0180 26041.9 -03480.9 -07.6132 26273.5
 14 08 2013  19 01  -21.0184 26041.9 -03480.7 -07.6129 26273.5
 14 08 2013  19 02  -21.0182 26041.6 -03480.5 -07.6125 26273.2
 14 08 2013  19 03  -21.0184 26041.5 -03480.4 -07.6124 26273.0
 14 08 2013  19 04  -21.0185 26041.2 -03480.3 -07.6122 26272.8
 14 08 2013  19 05  -21.0187 26041.1 -03480.2 -07.6120 26272.7
 14 08 2013  19 06  -21.0187 26040.7 -03480.0 -07.6117 26272.2
 14 08 2013  19 07  -21.0189 26040.4 -03479.9 -07.6115 26271.9
 14 08 2013  19 08  -21.0192 26040.3 -03479.8 -07.6114 26271.7
 14 08 2013  19 09  -21.0194 26040.1 -03479.7 -07.6112 26271.5
 14 08 2013  19 10  -21.0197 26039.8 -03479.6 -07.6111 26271.2
 14 08 2013  19 11  -21.0197 26039.3 -03479.4 -07.6108 26270.7
 14 08 2013  19 12  -21.0196 26038.9 -03479.3 -07.6106 26270.3
 14 08 2013  19 13  -21.0199 26038.5 -03479.2 -07.6106 26269.9
 14 08 2013  19 14  -21.0206 26038.2 -03479.2 -07.6106 26269.6
 14 08 2013  19 15  -21.0213 26038.0 -03479.1 -07.6106 26269.4
 14 08 2013  19 16  -21.0217 26037.8 -03479.1 -07.6105 26269.2
 14 08 2013  19 17  -21.0220 26037.4 -03478.9 -07.6103 26268.8
 14 08 2013  19 18  -21.0226 26037.5 -03478.9 -07.6103 26268.8
 14 08 2013  19 19  -21.0231 26037.5 -03478.9 -07.6103 26268.9
 14 08 2013  19 20  -21.0236 26037.2 -03478.8 -07.6100 26268.6
 14 08 2013  19 21  -21.0238 26036.8 -03478.6 -07.6097 26268.2
 14 08 2013  19 22  -21.0235 26036.3 -03478.3 -07.6092 26267.6
 14 08 2013  19 23  -21.0234 26035.8 -03478.1 -07.6090 26267.1
 14 08 2013  19 24  -21.0232 26035.1 -03477.9 -07.6087 26266.4
 14 08 2013  19 25  -21.0234 26034.7 -03477.8 -07.6086 26265.9
 14 08 2013  19 26  -21.0240 26034.0 -03477.6 -07.6085 26265.3
 14 08 2013  19 27  -21.0245 26033.2 -03477.4 -07.6083 26264.5
 14 08 2013  19 28  -21.0248 26032.4 -03477.2 -07.6080 26263.6
 14 08 2013  19 29  -21.0254 26032.3 -03477.3 -07.6082 26263.5
 14 08 2013  19 30  -21.0261 26032.1 -03477.3 -07.6083 26263.3
 14 08 2013  19 31  -21.0266 26032.0 -03477.3 -07.6083 26263.2
 14 08 2013  19 32  -21.0274 26031.6 -03477.1 -07.6082 26262.8
 14 08 2013  19 33  -21.0277 26031.2 -03477.0 -07.6079 26262.4
 14 08 2013  19 34  -21.0277 26030.7 -03476.8 -07.6077 26261.9
 14 08 2013  19 35  -21.0279 26030.5 -03476.8 -07.6077 26261.6
 14 08 2013  19 36  -21.0287 26030.4 -03476.8 -07.6078 26261.6
 14 08 2013  19 37  -21.0289 26030.3 -03476.8 -07.6078 26261.4
 14 08 2013  19 38  -21.0291 26029.9 -03476.7 -07.6076 26261.1
 14 08 2013  19 39  -21.0291 26029.5 -03476.5 -07.6073 26260.6
 14 08 2013  19 40  -21.0287 26029.2 -03476.3 -07.6071 26260.3
 14 08 2013  19 41  -21.0285 26028.8 -03476.2 -07.6070 26259.9
 14 08 2013  19 42  -21.0287 26028.6 -03476.3 -07.6071 26259.7
 14 08 2013  19 43  -21.0288 26028.4 -03476.3 -07.6072 26259.5
 14 08 2013  19 44  -21.0288 26028.0 -03476.1 -07.6071 26259.1
 14 08 2013  19 45  -21.0291 26027.8 -03476.2 -07.6071 26258.9
 14 08 2013  19 46  -21.0290 26027.4 -03476.1 -07.6071 26258.5
 14 08 2013  19 47  -21.0286 26026.9 -03476.0 -07.6070 26258.0
 14 08 2013  19 48  -21.0286 26026.9 -03476.1 -07.6073 26258.0
 14 08 2013  19 49  -21.0285 26026.9 -03476.2 -07.6075 26258.0
 14 08 2013  19 50  -21.0284 26026.7 -03476.2 -07.6076 26257.8
 14 08 2013  19 51  -21.0286 26026.8 -03476.3 -07.6078 26258.0
 14 08 2013  19 52  -21.0288 26026.9 -03476.4 -07.6079 26258.0
 14 08 2013  19 53  -21.0289 26026.7 -03476.4 -07.6080 26257.9
 14 08 2013  19 54  -21.0291 26026.6 -03476.4 -07.6080 26257.8
 14 08 2013  19 55  -21.0291 26026.6 -03476.5 -07.6082 26257.8
 14 08 2013  19 56  -21.0292 26026.4 -03476.4 -07.6081 26257.6
 14 08 2013  19 57  -21.0290 26026.4 -03476.4 -07.6081 26257.5
 14 08 2013  19 58  -21.0291 26026.3 -03476.4 -07.6081 26257.4
 14 08 2013  19 59  -21.0293 26026.1 -03476.4 -07.6082 26257.3
 14 08 2013  20 00  -21.0297 26026.3 -03476.5 -07.6084 26257.5
 14 08 2013  20 01  -21.0301 26026.5 -03476.6 -07.6084 26257.7
 14 08 2013  20 02  -21.0303 26026.5 -03476.5 -07.6083 26257.7
 14 08 2013  20 03  -21.0305 26026.5 -03476.4 -07.6081 26257.7
 14 08 2013  20 04  -21.0304 26026.5 -03476.4 -07.6080 26257.7
 14 08 2013  20 05  -21.0307 26026.6 -03476.3 -07.6079 26257.8
 14 08 2013  20 06  -21.0308 26026.9 -03476.5 -07.6081 26258.0
 14 08 2013  20 07  -21.0307 26026.9 -03476.4 -07.6079 26258.0
 14 08 2013  20 08  -21.0309 26027.0 -03476.4 -07.6079 26258.1
 14 08 2013  20 09  -21.0310 26027.0 -03476.4 -07.6078 26258.2
 14 08 2013  20 10  -21.0312 26027.0 -03476.3 -07.6077 26258.1
 14 08 2013  20 11  -21.0310 26026.7 -03476.1 -07.6073 26257.9
 14 08 2013  20 12  -21.0312 26026.5 -03475.9 -07.6070 26257.6
 14 08 2013  20 13  -21.0312 26026.3 -03475.7 -07.6066 26257.4
 14 08 2013  20 14  -21.0312 26026.2 -03475.6 -07.6064 26257.2
 14 08 2013  20 15  -21.0313 26026.1 -03475.5 -07.6063 26257.1
 14 08 2013  20 16  -21.0314 26026.1 -03475.4 -07.6061 26257.1
 14 08 2013  20 17  -21.0316 26026.1 -03475.4 -07.6059 26257.1
 14 08 2013  20 18  -21.0317 26026.2 -03475.3 -07.6057 26257.2
 14 08 2013  20 19  -21.0318 26026.2 -03475.1 -07.6053 26257.2
 14 08 2013  20 20  -21.0317 26025.9 -03474.8 -07.6048 26256.9
 14 08 2013  20 21  -21.0315 26026.0 -03474.7 -07.6046 26256.9
 14 08 2013  20 22  -21.0314 26025.9 -03474.6 -07.6042 26256.8
 14 08 2013  20 23  -21.0313 26025.9 -03474.5 -07.6041 26256.8
 14 08 2013  20 24  -21.0312 26025.9 -03474.4 -07.6038 26256.8
 14 08 2013  20 25  -21.0313 26025.9 -03474.3 -07.6036 26256.8
 14 08 2013  20 26  -21.0310 26025.9 -03474.2 -07.6034 26256.7
 14 08 2013  20 27  -21.0306 26025.7 -03474.0 -07.6031 26256.6
 14 08 2013  20 28  -21.0300 26025.5 -03473.8 -07.6028 26256.3
 14 08 2013  20 29  -21.0297 26025.6 -03473.9 -07.6029 26256.4
 14 08 2013  20 30  -21.0294 26025.4 -03473.8 -07.6027 26256.2
 14 08 2013  20 31  -21.0295 26025.0 -03473.6 -07.6023 26255.8
 14 08 2013  20 32  -21.0296 26025.0 -03473.6 -07.6024 26255.8
 14 08 2013  20 33  -21.0295 26024.5 -03473.4 -07.6021 26255.3
 14 08 2013  20 34  -21.0297 26024.5 -03473.3 -07.6019 26255.3
 14 08 2013  20 35  -21.0299 26024.5 -03473.2 -07.6017 26255.2
 14 08 2013  20 36  -21.0299 26024.3 -03473.0 -07.6013 26255.0
 14 08 2013  20 37  -21.0298 26024.0 -03472.8 -07.6009 26254.7
 14 08 2013  20 38  -21.0297 26023.9 -03472.6 -07.6006 26254.6
 14 08 2013  20 39  -21.0296 26024.0 -03472.6 -07.6005 26254.6
 14 08 2013  20 40  -21.0293 26024.1 -03472.5 -07.6004 26254.7
 14 08 2013  20 41  -21.0292 26024.2 -03472.5 -07.6003 26254.9
 14 08 2013  20 42  -21.0290 26024.4 -03472.5 -07.6003 26255.0
 14 08 2013  20 43  -21.0288 26024.5 -03472.5 -07.6003 26255.1
 14 08 2013  20 44  -21.0288 26024.4 -03472.5 -07.6002 26255.1
 14 08 2013  20 45  -21.0287 26024.5 -03472.5 -07.6002 26255.2
 14 08 2013  20 46  -21.0288 26024.5 -03472.6 -07.6003 26255.2
 14 08 2013  20 47  -21.0291 26025.1 -03472.9 -07.6009 26255.8
 14 08 2013  20 48  -21.0298 26024.6 -03472.8 -07.6008 26255.3
 14 08 2013  20 49  -21.0302 26025.1 -03472.9 -07.6009 26255.8
 14 08 2013  20 50  -21.0303 26024.9 -03472.8 -07.6007 26255.5
 14 08 2013  20 51  -21.0302 26024.4 -03472.4 -07.6001 26255.0
 14 08 2013  20 52  -21.0302 26024.2 -03472.3 -07.5998 26254.8
 14 08 2013  20 53  -21.0301 26024.2 -03472.3 -07.5998 26254.9
 14 08 2013  20 54  -21.0300 26024.6 -03472.5 -07.6001 26255.2
 14 08 2013  20 55  -21.0300 26024.7 -03472.6 -07.6003 26255.3
 14 08 2013  20 56  -21.0302 26024.4 -03472.5 -07.6001 26255.0
 14 08 2013  20 57  -21.0303 26024.2 -03472.3 -07.5999 26254.8
 14 08 2013  20 58  -21.0303 26024.4 -03472.4 -07.6001 26255.0
 14 08 2013  20 59  -21.0302 26024.6 -03472.6 -07.6004 26255.3
 14 08 2013  21 00  -21.0302 26024.5 -03472.6 -07.6004 26255.2
 14 08 2013  21 01  -21.0298 26024.6 -03472.6 -07.6004 26255.3
 14 08 2013  21 02  -21.0292 26024.7 -03472.6 -07.6004 26255.3
 14 08 2013  21 03  -21.0286 26024.7 -03472.6 -07.6004 26255.4
 14 08 2013  21 04  -21.0280 26024.7 -03472.6 -07.6004 26255.3
 14 08 2013  21 05  -21.0275 26024.5 -03472.6 -07.6004 26255.2
 14 08 2013  21 06  -21.0275 26024.8 -03472.8 -07.6008 26255.5
 14 08 2013  21 07  -21.0271 26025.0 -03473.0 -07.6011 26255.7
 14 08 2013  21 08  -21.0273 26025.2 -03473.2 -07.6016 26256.0
 14 08 2013  21 09  -21.0276 26025.4 -03473.4 -07.6018 26256.1
 14 08 2013  21 10  -21.0282 26025.4 -03473.5 -07.6021 26256.2
 14 08 2013  21 11  -21.0288 26025.3 -03473.4 -07.6020 26256.1
 14 08 2013  21 12  -21.0293 26025.3 -03473.4 -07.6019 26256.1
 14 08 2013  21 13  -21.0294 26025.7 -03473.6 -07.6022 26256.4
 14 08 2013  21 14  -21.0297 26025.2 -03473.6 -07.6023 26256.0
 14 08 2013  21 15  -21.0299 26024.5 -03473.2 -07.6017 26255.2
 14 08 2013  21 16  -21.0307 26024.6 -03473.2 -07.6017 26255.3
 14 08 2013  21 17  -21.0314 26025.2 -03473.6 -07.6023 26256.0
 14 08 2013  21 18  -21.0311 26026.0 -03473.8 -07.6026 26256.8
 14 08 2013  21 19  -21.0315 26026.5 -03474.0 -07.6028 26257.3
 14 08 2013  21 20  -21.0324 26026.1 -03473.9 -07.6027 26256.9
 14 08 2013  21 21  -21.0329 26025.8 -03473.7 -07.6024 26256.6
 14 08 2013  21 22  -21.0333 26025.6 -03473.6 -07.6022 26256.4
 14 08 2013  21 23  -21.0334 26025.3 -03473.3 -07.6017 26256.1
 14 08 2013  21 24  -21.0339 26025.2 -03473.3 -07.6017 26256.0
 14 08 2013  21 25  -21.0341 26024.8 -03473.1 -07.6013 26255.5
 14 08 2013  21 26  -21.0343 26024.3 -03472.7 -07.6008 26255.0
 14 08 2013  21 27  -21.0350 26023.7 -03472.5 -07.6003 26254.4
 14 08 2013  21 28  -21.0355 26023.3 -03472.2 -07.5999 26253.9
 14 08 2013  21 29  -21.0357 26023.1 -03472.1 -07.5998 26253.7
 14 08 2013  21 30  -21.0362 26022.7 -03472.0 -07.5995 26253.3
 14 08 2013  21 31  -21.0367 26022.2 -03471.8 -07.5993 26252.8
 14 08 2013  21 32  -21.0374 26021.8 -03471.6 -07.5991 26252.3
 14 08 2013  21 33  -21.0383 26021.4 -03471.5 -07.5989 26251.9
 14 08 2013  21 34  -21.0392 26021.1 -03471.3 -07.5987 26251.6
 14 08 2013  21 35  -21.0392 26020.8 -03471.2 -07.5985 26251.3
 14 08 2013  21 36  -21.0390 26020.6 -03471.2 -07.5984 26251.1
 14 08 2013  21 37  -21.0393 26020.5 -03471.1 -07.5984 26251.0
 14 08 2013  21 38  -21.0395 26020.4 -03471.1 -07.5982 26250.9
 14 08 2013  21 39  -21.0398 26020.1 -03471.0 -07.5981 26250.6
 14 08 2013  21 40  -21.0399 26019.9 -03470.9 -07.5980 26250.4
 14 08 2013  21 41  -21.0400 26019.9 -03470.9 -07.5981 26250.4
 14 08 2013  21 42  -21.0404 26020.0 -03471.0 -07.5982 26250.5
 14 08 2013  21 43  -21.0406 26019.9 -03471.0 -07.5983 26250.4
 14 08 2013  21 44  -21.0403 26019.9 -03470.9 -07.5981 26250.4
 14 08 2013  21 45  -21.0401 26019.8 -03470.9 -07.5980 26250.3
 14 08 2013  21 46  -21.0400 26019.8 -03470.8 -07.5979 26250.2
 14 08 2013  21 47  -21.0396 26019.5 -03470.7 -07.5977 26249.9
 14 08 2013  21 48  -21.0390 26019.6 -03470.7 -07.5977 26250.0
 14 08 2013  21 49  -21.0384 26019.4 -03470.6 -07.5976 26249.9
 14 08 2013  21 50  -21.0377 26019.1 -03470.5 -07.5974 26249.6
 14 08 2013  21 51  -21.0369 26019.1 -03470.5 -07.5975 26249.5
 14 08 2013  21 52  -21.0364 26019.0 -03470.5 -07.5975 26249.4
 14 08 2013  21 53  -21.0360 26018.6 -03470.4 -07.5974 26249.0
 14 08 2013  21 54  -21.0357 26018.4 -03470.4 -07.5974 26248.8
 14 08 2013  21 55  -21.0358 26018.3 -03470.4 -07.5975 26248.7
 14 08 2013  21 56  -21.0360 26018.5 -03470.7 -07.5979 26249.0
 14 08 2013  21 57  -21.0362 26018.6 -03470.8 -07.5981 26249.1
 14 08 2013  21 58  -21.0361 26018.4 -03470.7 -07.5981 26248.8
 14 08 2013  21 59  -21.0358 26018.3 -03470.7 -07.5981 26248.7
 14 08 2013  22 00  -21.0358 26018.3 -03470.7 -07.5981 26248.7
 14 08 2013  22 01  -21.0364 26017.8 -03470.5 -07.5979 26248.3
 14 08 2013  22 02  -21.0369 26018.4 -03470.8 -07.5983 26248.9
 14 08 2013  22 03  -21.0369 26019.2 -03471.3 -07.5991 26249.8
 14 08 2013  22 04  -21.0366 26019.4 -03471.4 -07.5993 26250.0
 14 08 2013  22 05  -21.0365 26019.2 -03471.3 -07.5990 26249.7
 14 08 2013  22 06  -21.0368 26019.1 -03471.2 -07.5990 26249.6
 14 08 2013  22 07  -21.0370 26018.7 -03471.0 -07.5987 26249.2
 14 08 2013  22 08  -21.0371 26018.3 -03470.9 -07.5984 26248.8
 14 08 2013  22 09  -21.0373 26018.2 -03470.8 -07.5983 26248.6
 14 08 2013  22 10  -21.0374 26018.0 -03470.7 -07.5982 26248.5
 14 08 2013  22 11  -21.0377 26017.6 -03470.6 -07.5980 26248.1
 14 08 2013  22 12  -21.0380 26017.3 -03470.5 -07.5979 26247.8
 14 08 2013  22 13  -21.0384 26016.9 -03470.3 -07.5977 26247.3
 14 08 2013  22 14  -21.0385 26016.4 -03470.1 -07.5974 26246.8
 14 08 2013  22 15  -21.0384 26016.2 -03470.1 -07.5973 26246.6
 14 08 2013  22 16  -21.0385 26015.9 -03470.0 -07.5972 26246.3
 14 08 2013  22 17  -21.0388 26015.6 -03469.9 -07.5972 26245.9
 14 08 2013  22 18  -21.0390 26015.4 -03469.9 -07.5972 26245.8
 14 08 2013  22 19  -21.0389 26015.2 -03469.8 -07.5971 26245.5
 14 08 2013  22 20  -21.0387 26014.8 -03469.7 -07.5970 26245.2
 14 08 2013  22 21  -21.0386 26014.5 -03469.7 -07.5970 26244.9
 14 08 2013  22 22  -21.0387 26014.2 -03469.6 -07.5968 26244.5
 14 08 2013  22 23  -21.0386 26013.9 -03469.6 -07.5969 26244.3
 14 08 2013  22 24  -21.0385 26013.6 -03469.5 -07.5968 26243.9
 14 08 2013  22 25  -21.0384 26013.4 -03469.5 -07.5969 26243.8
 14 08 2013  22 26  -21.0385 26013.2 -03469.5 -07.5970 26243.5
 14 08 2013  22 27  -21.0387 26012.9 -03469.4 -07.5969 26243.2
 14 08 2013  22 28  -21.0388 26012.8 -03469.5 -07.5970 26243.1
 14 08 2013  22 29  -21.0389 26012.6 -03469.5 -07.5971 26243.0
 14 08 2013  22 30  -21.0388 26012.5 -03469.6 -07.5973 26242.9
 14 08 2013  22 31  -21.0385 26012.2 -03469.5 -07.5972 26242.5
 14 08 2013  22 32  -21.0385 26011.9 -03469.4 -07.5972 26242.3
 14 08 2013  22 33  -21.0385 26011.9 -03469.5 -07.5973 26242.2
 14 08 2013  22 34  -21.0385 26011.6 -03469.5 -07.5974 26242.0
 14 08 2013  22 35  -21.0386 26011.3 -03469.4 -07.5973 26241.7
 14 08 2013  22 36  -21.0383 26010.9 -03469.3 -07.5971 26241.3
 14 08 2013  22 37  -21.0378 26010.5 -03469.1 -07.5969 26240.8
 14 08 2013  22 38  -21.0375 26010.3 -03469.1 -07.5970 26240.6
 14 08 2013  22 39  -21.0372 26010.0 -03469.1 -07.5970 26240.3
 14 08 2013  22 40  -21.0370 26009.8 -03469.1 -07.5970 26240.1
 14 08 2013  22 41  -21.0368 26009.5 -03469.1 -07.5972 26239.9
 14 08 2013  22 42  -21.0368 26009.3 -03469.1 -07.5973 26239.6
 14 08 2013  22 43  -21.0369 26009.0 -03469.1 -07.5974 26239.3
 14 08 2013  22 44  -21.0370 26008.8 -03469.2 -07.5975 26239.1
 14 08 2013  22 45  -21.0368 26008.7 -03469.2 -07.5977 26239.1
 14 08 2013  22 46  -21.0362 26008.5 -03469.2 -07.5977 26238.8
 14 08 2013  22 47  -21.0355 26008.3 -03469.2 -07.5978 26238.6
 14 08 2013  22 48  -21.0352 26008.2 -03469.3 -07.5980 26238.6
 14 08 2013  22 49  -21.0351 26008.3 -03469.5 -07.5983 26238.7
 14 08 2013  22 50  -21.0348 26008.3 -03469.6 -07.5986 26238.7
 14 08 2013  22 51  -21.0346 26008.2 -03469.7 -07.5989 26238.6
 14 08 2013  22 52  -21.0347 26008.0 -03469.8 -07.5990 26238.4
 14 08 2013  22 53  -21.0346 26008.3 -03470.0 -07.5994 26238.7
 14 08 2013  22 54  -21.0344 26008.6 -03470.3 -07.5999 26239.1
 14 08 2013  22 55  -21.0342 26008.9 -03470.5 -07.6004 26239.5
 14 08 2013  22 56  -21.0344 26009.4 -03470.8 -07.6009 26239.9
 14 08 2013  22 57  -21.0344 26010.4 -03471.4 -07.6018 26241.0
 14 08 2013  22 58  -21.0341 26011.8 -03472.1 -07.6029 26242.5
 14 08 2013  22 59  -21.0339 26013.4 -03472.9 -07.6042 26244.2
 14 08 2013  23 00  -21.0340 26014.8 -03473.7 -07.6055 26245.7
 14 08 2013  23 01  -21.0338 26015.2 -03473.8 -07.6057 26246.1
 14 08 2013  23 02  -21.0335 26014.7 -03473.5 -07.6052 26245.5
 14 08 2013  23 03  -21.0332 26014.0 -03473.0 -07.6044 26244.8
 14 08 2013  23 04  -21.0329 26013.9 -03472.8 -07.6040 26244.7
 14 08 2013  23 05  -21.0327 26014.5 -03473.1 -07.6044 26245.3
 14 08 2013  23 06  -21.0324 26015.2 -03473.4 -07.6048 26246.0
 14 08 2013  23 07  -21.0321 26015.5 -03473.6 -07.6051 26246.4
 14 08 2013  23 08  -21.0322 26015.7 -03473.7 -07.6052 26246.6
 14 08 2013  23 09  -21.0326 26015.7 -03473.7 -07.6052 26246.6
 14 08 2013  23 10  -21.0333 26015.4 -03473.5 -07.6049 26246.3
 14 08 2013  23 11  -21.0339 26015.4 -03473.4 -07.6047 26246.2
 14 08 2013  23 12  -21.0344 26015.4 -03473.3 -07.6046 26246.3
 14 08 2013  23 13  -21.0347 26015.7 -03473.4 -07.6047 26246.5
 14 08 2013  23 14  -21.0350 26015.7 -03473.4 -07.6047 26246.6
 14 08 2013  23 15  -21.0351 26015.8 -03473.4 -07.6047 26246.6
 14 08 2013  23 16  -21.0353 26015.8 -03473.4 -07.6046 26246.7
 14 08 2013  23 17  -21.0352 26016.1 -03473.4 -07.6046 26246.9
 14 08 2013  23 18  -21.0352 26016.3 -03473.5 -07.6047 26247.1
 14 08 2013  23 19  -21.0355 26016.1 -03473.4 -07.6046 26246.9
 14 08 2013  23 20  -21.0358 26015.9 -03473.3 -07.6044 26246.7
 14 08 2013  23 21  -21.0362 26015.7 -03473.1 -07.6041 26246.5
 14 08 2013  23 22  -21.0366 26015.4 -03473.0 -07.6039 26246.2
 14 08 2013  23 23  -21.0371 26015.1 -03472.8 -07.6035 26245.8
 14 08 2013  23 24  -21.0375 26014.9 -03472.6 -07.6033 26245.6
 14 08 2013  23 25  -21.0379 26014.5 -03472.5 -07.6030 26245.2
 14 08 2013  23 26  -21.0382 26014.2 -03472.3 -07.6028 26244.9
 14 08 2013  23 27  -21.0386 26014.2 -03472.2 -07.6026 26244.9
 14 08 2013  23 28  -21.0390 26014.0 -03472.2 -07.6026 26244.7
 14 08 2013  23 29  -21.0394 26013.8 -03472.1 -07.6025 26244.5
 14 08 2013  23 30  -21.0398 26013.6 -03472.0 -07.6023 26244.3
 14 08 2013  23 31  -21.0403 26013.3 -03471.9 -07.6021 26243.9
 14 08 2013  23 32  -21.0408 26013.0 -03471.7 -07.6018 26243.7
 14 08 2013  23 33  -21.0413 26012.9 -03471.6 -07.6017 26243.5
 14 08 2013  23 34  -21.0420 26012.7 -03471.6 -07.6016 26243.3
 14 08 2013  23 35  -21.0429 26012.3 -03471.4 -07.6013 26242.9
 14 08 2013  23 36  -21.0437 26012.1 -03471.4 -07.6013 26242.8
 14 08 2013  23 37  -21.0444 26011.8 -03471.2 -07.6011 26242.4
 14 08 2013  23 38  -21.0452 26011.7 -03471.1 -07.6010 26242.3
 14 08 2013  23 39  -21.0461 26011.4 -03471.0 -07.6007 26242.0
 14 08 2013  23 40  -21.0467 26011.0 -03470.8 -07.6004 26241.5
 14 08 2013  23 41  -21.0470 26010.7 -03470.6 -07.6001 26241.2
 14 08 2013  23 42  -21.0471 26010.4 -03470.5 -07.6000 26240.9
 14 08 2013  23 43  -21.0468 26010.1 -03470.3 -07.5997 26240.5
 14 08 2013  23 44  -21.0463 26010.0 -03470.3 -07.5996 26240.5
 14 08 2013  23 45  -21.0457 26010.3 -03470.5 -07.5999 26240.8
 14 08 2013  23 46  -21.0455 26010.6 -03470.8 -07.6005 26241.2
 14 08 2013  23 47  -21.0457 26011.2 -03471.1 -07.6011 26241.8
 14 08 2013  23 48  -21.0460 26011.5 -03471.4 -07.6015 26242.1
 14 08 2013  23 49  -21.0460 26011.8 -03471.6 -07.6018 26242.5
 14 08 2013  23 50  -21.0460 26011.9 -03471.6 -07.6018 26242.6
 14 08 2013  23 51  -21.0457 26012.0 -03471.6 -07.6018 26242.6
 14 08 2013  23 52  -21.0457 26012.3 -03471.7 -07.6019 26242.9
 14 08 2013  23 53  -21.0456 26013.1 -03472.1 -07.6025 26243.8
 14 08 2013  23 54  -21.0457 26013.5 -03472.3 -07.6029 26244.2
 14 08 2013  23 55  -21.0456 26013.6 -03472.3 -07.6030 26244.3
 14 08 2013  23 56  -21.0454 26013.5 -03472.3 -07.6029 26244.3
 14 08 2013  23 57  -21.0453 26013.6 -03472.3 -07.6029 26244.3
 14 08 2013  23 58  -21.0452 26013.8 -03472.3 -07.6029 26244.5
