SAO LUIS EMBRACE-03 <287> 1 Min. Reported data

 DD MM YYYY  HH MM   D(Deg)  H(nT)   Z(nT)   I(Deg)   F(nT)

 14 10 2013  00 00  -21.0078 26026.5 -03494.0 -07.6461 26260.0
 14 10 2013  00 01  -21.0078 26026.5 -03494.0 -07.6461 26260.0
 14 10 2013  00 02  -21.0077 26026.5 -03494.0 -07.6461 26260.0
 14 10 2013  00 03  -21.0077 26026.4 -03494.0 -07.6462 26259.9
 14 10 2013  00 04  -21.0077 26026.5 -03494.0 -07.6462 26260.0
 14 10 2013  00 05  -21.0076 26026.5 -03494.1 -07.6463 26260.0
 14 10 2013  00 06  -21.0076 26026.4 -03494.1 -07.6463 26259.9
 14 10 2013  00 07  -21.0077 26026.4 -03494.1 -07.6463 26259.9
 14 10 2013  00 08  -21.0076 26026.4 -03494.1 -07.6463 26259.9
 14 10 2013  00 09  -21.0074 26026.5 -03494.1 -07.6462 26260.0
 14 10 2013  00 10  -21.0074 26026.4 -03494.1 -07.6463 26259.9
 14 10 2013  00 11  -21.0073 26026.4 -03494.1 -07.6464 26259.9
 14 10 2013  00 12  -21.0073 26026.4 -03494.1 -07.6464 26259.9
 14 10 2013  00 13  -21.0074 26026.4 -03494.1 -07.6464 26259.9
 14 10 2013  00 14  -21.0072 26026.4 -03494.1 -07.6464 26259.9
 14 10 2013  00 15  -21.0072 26026.4 -03494.2 -07.6465 26259.9
 14 10 2013  00 16  -21.0071 26026.4 -03494.1 -07.6464 26259.9
 14 10 2013  00 17  -21.0069 26026.3 -03494.1 -07.6464 26259.8
 14 10 2013  00 18  -21.0070 26026.3 -03494.1 -07.6465 26259.8
 14 10 2013  00 19  -21.0069 26026.3 -03494.1 -07.6465 26259.8
 14 10 2013  00 20  -21.0069 26026.2 -03494.1 -07.6464 26259.7
 14 10 2013  00 21  -21.0068 26026.1 -03494.1 -07.6464 26259.6
 14 10 2013  00 22  -21.0068 26026.0 -03494.1 -07.6464 26259.5
 14 10 2013  00 23  -21.0068 26025.9 -03494.0 -07.6463 26259.4
 14 10 2013  00 24  -21.0067 26025.8 -03494.0 -07.6463 26259.3
 14 10 2013  00 25  -21.0065 26025.8 -03494.0 -07.6463 26259.2
 14 10 2013  00 26  -21.0065 26025.7 -03494.0 -07.6463 26259.2
 14 10 2013  00 27  -21.0065 26025.8 -03494.0 -07.6464 26259.3
 14 10 2013  00 28  -21.0064 26025.7 -03494.0 -07.6464 26259.2
 14 10 2013  00 29  -21.0062 26025.6 -03494.0 -07.6463 26259.1
 14 10 2013  00 30  -21.0060 26025.6 -03494.0 -07.6464 26259.1
 14 10 2013  00 31  -21.0059 26025.6 -03494.0 -07.6464 26259.1
 14 10 2013  00 32  -21.0060 26025.5 -03494.0 -07.6465 26259.0
 14 10 2013  00 33  -21.0059 26025.6 -03494.1 -07.6466 26259.1
 14 10 2013  00 34  -21.0059 26025.6 -03494.1 -07.6466 26259.1
 14 10 2013  00 35  -21.0057 26025.5 -03494.1 -07.6466 26259.0
 14 10 2013  00 36  -21.0056 26025.5 -03494.1 -07.6466 26259.0
 14 10 2013  00 37  -21.0055 26025.5 -03494.1 -07.6466 26259.0
 14 10 2013  00 38  -21.0056 26025.4 -03494.1 -07.6466 26258.9
 14 10 2013  00 39  -21.0056 26025.4 -03494.1 -07.6467 26258.9
 14 10 2013  00 40  -21.0055 26025.4 -03494.1 -07.6467 26258.9
 14 10 2013  00 41  -21.0055 26025.4 -03494.1 -07.6467 26258.9
 14 10 2013  00 42  -21.0054 26025.3 -03494.1 -07.6466 26258.8
 14 10 2013  00 43  -21.0054 26025.2 -03494.1 -07.6466 26258.7
 14 10 2013  00 44  -21.0055 26025.1 -03494.1 -07.6466 26258.7
 14 10 2013  00 45  -21.0056 26025.1 -03494.1 -07.6467 26258.6
 14 10 2013  00 46  -21.0056 26025.1 -03494.1 -07.6467 26258.6
 14 10 2013  00 47  -21.0057 26025.1 -03494.1 -07.6467 26258.6
 14 10 2013  00 48  -21.0057 26025.0 -03494.1 -07.6467 26258.5
 14 10 2013  00 49  -21.0058 26025.0 -03494.1 -07.6467 26258.6
 14 10 2013  00 50  -21.0058 26025.0 -03494.1 -07.6468 26258.5
 14 10 2013  00 51  -21.0059 26025.1 -03494.2 -07.6469 26258.7
 14 10 2013  00 52  -21.0060 26025.1 -03494.2 -07.6470 26258.7
 14 10 2013  00 53  -21.0061 26025.2 -03494.2 -07.6470 26258.7
 14 10 2013  00 54  -21.0061 26025.2 -03494.3 -07.6471 26258.7
 14 10 2013  00 55  -21.0062 26025.2 -03494.3 -07.6472 26258.7
 14 10 2013  00 56  -21.0062 26025.1 -03494.3 -07.6472 26258.7
 14 10 2013  00 57  -21.0061 26025.0 -03494.3 -07.6471 26258.6
 14 10 2013  00 58  -21.0061 26025.0 -03494.3 -07.6471 26258.5
 14 10 2013  00 59  -21.0062 26025.0 -03494.3 -07.6472 26258.5
 14 10 2013  01 00  -21.0062 26024.9 -03494.3 -07.6472 26258.4
 14 10 2013  01 01  -21.0061 26024.9 -03494.3 -07.6472 26258.4
 14 10 2013  01 02  -21.0061 26024.9 -03494.4 -07.6473 26258.5
 14 10 2013  01 03  -21.0059 26024.8 -03494.3 -07.6473 26258.4
 14 10 2013  01 04  -21.0058 26024.8 -03494.4 -07.6474 26258.4
 14 10 2013  01 05  -21.0058 26024.8 -03494.4 -07.6474 26258.3
 14 10 2013  01 06  -21.0057 26024.8 -03494.4 -07.6475 26258.3
 14 10 2013  01 07  -21.0057 26024.8 -03494.5 -07.6476 26258.3
 14 10 2013  01 08  -21.0058 26024.8 -03494.5 -07.6477 26258.3
 14 10 2013  01 09  -21.0060 26024.8 -03494.6 -07.6478 26258.4
 14 10 2013  01 10  -21.0062 26024.8 -03494.6 -07.6479 26258.3
 14 10 2013  01 11  -21.0062 26024.7 -03494.6 -07.6479 26258.3
 14 10 2013  01 12  -21.0062 26024.7 -03494.6 -07.6479 26258.2
 14 10 2013  01 13  -21.0061 26024.6 -03494.6 -07.6479 26258.2
 14 10 2013  01 14  -21.0061 26024.5 -03494.6 -07.6479 26258.1
 14 10 2013  01 15  -21.0061 26024.5 -03494.6 -07.6479 26258.0
 14 10 2013  01 16  -21.0061 26024.5 -03494.5 -07.6479 26258.0
 14 10 2013  01 17  -21.0062 26024.4 -03494.6 -07.6479 26258.0
 14 10 2013  01 18  -21.0061 26024.3 -03494.5 -07.6478 26257.8
 14 10 2013  01 19  -21.0062 26024.2 -03494.5 -07.6478 26257.8
 14 10 2013  01 20  -21.0063 26024.3 -03494.5 -07.6479 26257.8
 14 10 2013  01 21  -21.0063 26024.2 -03494.5 -07.6479 26257.7
 14 10 2013  01 22  -21.0065 26024.1 -03494.5 -07.6479 26257.7
 14 10 2013  01 23  -21.0064 26024.0 -03494.5 -07.6478 26257.6
 14 10 2013  01 24  -21.0063 26024.0 -03494.5 -07.6478 26257.5
 14 10 2013  01 25  -21.0063 26023.9 -03494.5 -07.6478 26257.5
 14 10 2013  01 26  -21.0064 26023.9 -03494.5 -07.6480 26257.5
 14 10 2013  01 27  -21.0065 26023.9 -03494.6 -07.6481 26257.5
 14 10 2013  01 28  -21.0068 26023.9 -03494.6 -07.6482 26257.5
 14 10 2013  01 29  -21.0069 26024.0 -03494.7 -07.6483 26257.6
 14 10 2013  01 30  -21.0071 26024.0 -03494.7 -07.6483 26257.6
 14 10 2013  01 31  -21.0073 26023.9 -03494.7 -07.6483 26257.5
 14 10 2013  01 32  -21.0075 26023.9 -03494.7 -07.6484 26257.5
 14 10 2013  01 33  -21.0075 26023.8 -03494.7 -07.6483 26257.4
 14 10 2013  01 34  -21.0076 26023.7 -03494.6 -07.6483 26257.3
 14 10 2013  01 35  -21.0076 26023.6 -03494.6 -07.6483 26257.2
 14 10 2013  01 36  -21.0077 26023.5 -03494.6 -07.6483 26257.1
 14 10 2013  01 37  -21.0079 26023.5 -03494.6 -07.6483 26257.1
 14 10 2013  01 38  -21.0080 26023.5 -03494.7 -07.6484 26257.1
 14 10 2013  01 39  -21.0083 26023.5 -03494.7 -07.6486 26257.1
 14 10 2013  01 40  -21.0086 26023.6 -03494.8 -07.6487 26257.2
 14 10 2013  01 41  -21.0089 26023.6 -03494.9 -07.6488 26257.2
 14 10 2013  01 42  -21.0090 26023.6 -03494.8 -07.6488 26257.2
 14 10 2013  01 43  -21.0090 26023.6 -03494.8 -07.6487 26257.2
 14 10 2013  01 44  -21.0090 26023.4 -03494.8 -07.6486 26257.1
 14 10 2013  01 45  -21.0089 26023.3 -03494.7 -07.6486 26256.9
 14 10 2013  01 46  -21.0088 26023.2 -03494.7 -07.6486 26256.8
 14 10 2013  01 47  -21.0088 26023.1 -03494.7 -07.6485 26256.7
 14 10 2013  01 48  -21.0088 26023.1 -03494.7 -07.6485 26256.7
 14 10 2013  01 49  -21.0088 26023.0 -03494.7 -07.6486 26256.6
 14 10 2013  01 50  -21.0090 26023.0 -03494.7 -07.6485 26256.6
 14 10 2013  01 51  -21.0090 26022.9 -03494.7 -07.6486 26256.5
 14 10 2013  01 52  -21.0091 26022.9 -03494.7 -07.6487 26256.5
 14 10 2013  01 53  -21.0092 26022.8 -03494.7 -07.6488 26256.4
 14 10 2013  01 54  -21.0093 26022.8 -03494.8 -07.6488 26256.4
 14 10 2013  01 55  -21.0094 26022.7 -03494.8 -07.6489 26256.3
 14 10 2013  01 56  -21.0096 26022.7 -03494.8 -07.6489 26256.3
 14 10 2013  01 57  -21.0096 26022.6 -03494.8 -07.6490 26256.2
 14 10 2013  01 58  -21.0097 26022.5 -03494.8 -07.6490 26256.1
 14 10 2013  01 59  -21.0097 26022.3 -03494.8 -07.6490 26256.0
 14 10 2013  02 00  -21.0097 26022.3 -03494.8 -07.6491 26255.9
 14 10 2013  02 01  -21.0099 26022.2 -03494.8 -07.6492 26255.9
 14 10 2013  02 02  -21.0100 26022.2 -03494.9 -07.6493 26255.9
 14 10 2013  02 03  -21.0102 26022.2 -03494.9 -07.6494 26255.9
 14 10 2013  02 04  -21.0104 26022.2 -03495.0 -07.6495 26255.9
 14 10 2013  02 05  -21.0105 26022.2 -03495.0 -07.6496 26255.9
 14 10 2013  02 06  -21.0106 26022.1 -03495.0 -07.6496 26255.7
 14 10 2013  02 07  -21.0104 26022.0 -03495.0 -07.6496 26255.6
 14 10 2013  02 08  -21.0102 26022.0 -03495.0 -07.6496 26255.6
 14 10 2013  02 09  -21.0100 26022.0 -03495.1 -07.6498 26255.7
 14 10 2013  02 10  -21.0101 26022.2 -03495.3 -07.6501 26255.9
 14 10 2013  02 11  -21.0104 26022.2 -03495.4 -07.6503 26255.9
 14 10 2013  02 12  -21.0107 26022.2 -03495.5 -07.6505 26256.0
 14 10 2013  02 13  -21.0109 26022.4 -03495.6 -07.6508 26256.2
 14 10 2013  02 14  -21.0110 26022.3 -03495.6 -07.6508 26256.1
 14 10 2013  02 15  -21.0112 26022.2 -03495.6 -07.6507 26255.9
 14 10 2013  02 16  -21.0111 26022.0 -03495.5 -07.6507 26255.7
 14 10 2013  02 17  -21.0109 26021.9 -03495.5 -07.6508 26255.6
 14 10 2013  02 18  -21.0109 26021.7 -03495.5 -07.6507 26255.4
 14 10 2013  02 19  -21.0109 26021.7 -03495.5 -07.6508 26255.4
 14 10 2013  02 20  -21.0109 26021.7 -03495.6 -07.6510 26255.4
 14 10 2013  02 21  -21.0109 26021.5 -03495.6 -07.6510 26255.3
 14 10 2013  02 22  -21.0108 26021.5 -03495.6 -07.6511 26255.2
 14 10 2013  02 23  -21.0108 26021.3 -03495.6 -07.6511 26255.0
 14 10 2013  02 24  -21.0108 26021.2 -03495.7 -07.6512 26255.0
 14 10 2013  02 25  -21.0107 26021.3 -03495.7 -07.6514 26255.0
 14 10 2013  02 26  -21.0107 26021.2 -03495.8 -07.6515 26255.0
 14 10 2013  02 27  -21.0109 26021.2 -03495.9 -07.6517 26255.0
 14 10 2013  02 28  -21.0110 26021.3 -03496.0 -07.6519 26255.1
 14 10 2013  02 29  -21.0111 26021.1 -03496.0 -07.6519 26254.9
 14 10 2013  02 30  -21.0113 26021.1 -03496.0 -07.6520 26254.9
 14 10 2013  02 31  -21.0113 26021.1 -03496.0 -07.6521 26254.9
 14 10 2013  02 32  -21.0115 26021.0 -03496.1 -07.6522 26254.8
 14 10 2013  02 33  -21.0117 26020.8 -03496.0 -07.6521 26254.6
 14 10 2013  02 34  -21.0119 26020.7 -03496.0 -07.6521 26254.5
 14 10 2013  02 35  -21.0121 26020.7 -03496.1 -07.6523 26254.5
 14 10 2013  02 36  -21.0123 26020.6 -03496.1 -07.6523 26254.4
 14 10 2013  02 37  -21.0122 26020.5 -03496.1 -07.6524 26254.3
 14 10 2013  02 38  -21.0123 26020.5 -03496.1 -07.6524 26254.3
 14 10 2013  02 39  -21.0126 26020.4 -03496.2 -07.6525 26254.2
 14 10 2013  02 40  -21.0127 26020.3 -03496.2 -07.6526 26254.2
 14 10 2013  02 41  -21.0130 26020.3 -03496.2 -07.6526 26254.1
 14 10 2013  02 42  -21.0131 26020.3 -03496.2 -07.6527 26254.1
 14 10 2013  02 43  -21.0133 26020.2 -03496.2 -07.6528 26254.0
 14 10 2013  02 44  -21.0135 26020.2 -03496.2 -07.6527 26254.0
 14 10 2013  02 45  -21.0137 26020.2 -03496.3 -07.6528 26254.0
 14 10 2013  02 46  -21.0139 26020.1 -03496.3 -07.6528 26254.0
 14 10 2013  02 47  -21.0141 26020.1 -03496.2 -07.6528 26254.0
 14 10 2013  02 48  -21.0142 26020.1 -03496.2 -07.6527 26253.9
 14 10 2013  02 49  -21.0144 26020.0 -03496.2 -07.6527 26253.8
 14 10 2013  02 50  -21.0146 26020.0 -03496.2 -07.6527 26253.8
 14 10 2013  02 51  -21.0148 26020.0 -03496.2 -07.6527 26253.8
 14 10 2013  02 52  -21.0148 26020.0 -03496.1 -07.6526 26253.8
 14 10 2013  02 53  -21.0146 26020.1 -03496.2 -07.6527 26253.9
 14 10 2013  02 54  -21.0147 26020.0 -03496.1 -07.6526 26253.8
 14 10 2013  02 55  -21.0150 26020.2 -03496.2 -07.6527 26254.0
 14 10 2013  02 56  -21.0152 26020.2 -03496.2 -07.6528 26254.1
 14 10 2013  02 57  -21.0154 26020.2 -03496.2 -07.6527 26254.0
 14 10 2013  02 58  -21.0154 26020.3 -03496.2 -07.6527 26254.1
 14 10 2013  02 59  -21.0154 26020.4 -03496.3 -07.6528 26254.2
 14 10 2013  03 00  -21.0154 26020.4 -03496.2 -07.6526 26254.2
 14 10 2013  03 01  -21.0155 26020.4 -03496.2 -07.6527 26254.3
 14 10 2013  03 02  -21.0154 26020.5 -03496.3 -07.6527 26254.4
 14 10 2013  03 03  -21.0155 26020.5 -03496.2 -07.6526 26254.3
 14 10 2013  03 04  -21.0154 26020.5 -03496.2 -07.6526 26254.4
 14 10 2013  03 05  -21.0155 26020.6 -03496.2 -07.6526 26254.4
 14 10 2013  03 06  -21.0157 26020.5 -03496.2 -07.6526 26254.4
 14 10 2013  03 07  -21.0158 26020.5 -03496.1 -07.6524 26254.3
 14 10 2013  03 08  -21.0159 26020.5 -03496.1 -07.6523 26254.3
 14 10 2013  03 09  -21.0161 26020.4 -03496.0 -07.6523 26254.3
 14 10 2013  03 10  -21.0163 26020.4 -03496.0 -07.6522 26254.2
 14 10 2013  03 11  -21.0166 26020.3 -03495.9 -07.6521 26254.1
 14 10 2013  03 12  -21.0168 26020.3 -03495.9 -07.6520 26254.1
 14 10 2013  03 13  -21.0169 26020.1 -03495.8 -07.6518 26253.9
 14 10 2013  03 14  -21.0170 26020.0 -03495.6 -07.6516 26253.7
 14 10 2013  03 15  -21.0169 26019.8 -03495.5 -07.6514 26253.6
 14 10 2013  03 16  -21.0166 26019.8 -03495.5 -07.6512 26253.5
 14 10 2013  03 17  -21.0163 26019.7 -03495.4 -07.6511 26253.4
 14 10 2013  03 18  -21.0159 26019.6 -03495.3 -07.6510 26253.3
 14 10 2013  03 19  -21.0157 26019.6 -03495.3 -07.6510 26253.3
 14 10 2013  03 20  -21.0157 26019.6 -03495.4 -07.6510 26253.3
 14 10 2013  03 21  -21.0157 26019.5 -03495.3 -07.6510 26253.3
 14 10 2013  03 22  -21.0156 26019.6 -03495.3 -07.6510 26253.3
 14 10 2013  03 23  -21.0157 26019.6 -03495.4 -07.6511 26253.3
 14 10 2013  03 24  -21.0159 26019.6 -03495.4 -07.6511 26253.3
 14 10 2013  03 25  -21.0161 26019.6 -03495.4 -07.6512 26253.4
 14 10 2013  03 26  -21.0164 26019.6 -03495.4 -07.6511 26253.3
 14 10 2013  03 27  -21.0165 26019.6 -03495.4 -07.6510 26253.3
 14 10 2013  03 28  -21.0165 26019.6 -03495.4 -07.6510 26253.3
 14 10 2013  03 29  -21.0165 26019.7 -03495.3 -07.6510 26253.4
 14 10 2013  03 30  -21.0163 26019.7 -03495.3 -07.6509 26253.4
 14 10 2013  03 31  -21.0163 26019.7 -03495.3 -07.6509 26253.4
 14 10 2013  03 32  -21.0163 26019.7 -03495.3 -07.6509 26253.5
 14 10 2013  03 33  -21.0162 26019.8 -03495.3 -07.6509 26253.5
 14 10 2013  03 34  -21.0162 26019.8 -03495.3 -07.6508 26253.5
 14 10 2013  03 35  -21.0163 26019.7 -03495.3 -07.6508 26253.4
 14 10 2013  03 36  -21.0164 26019.7 -03495.3 -07.6508 26253.4
 14 10 2013  03 37  -21.0164 26019.8 -03495.3 -07.6508 26253.5
 14 10 2013  03 38  -21.0165 26019.8 -03495.3 -07.6507 26253.5
 14 10 2013  03 39  -21.0166 26019.8 -03495.3 -07.6508 26253.6
 14 10 2013  03 40  -21.0167 26020.0 -03495.3 -07.6508 26253.7
 14 10 2013  03 41  -21.0167 26020.1 -03495.3 -07.6508 26253.8
 14 10 2013  03 42  -21.0168 26020.2 -03495.4 -07.6509 26253.9
 14 10 2013  03 43  -21.0169 26020.3 -03495.4 -07.6509 26254.0
 14 10 2013  03 44  -21.0169 26020.4 -03495.4 -07.6509 26254.1
 14 10 2013  03 45  -21.0170 26020.5 -03495.4 -07.6510 26254.2
 14 10 2013  03 46  -21.0171 26020.5 -03495.4 -07.6509 26254.2
 14 10 2013  03 47  -21.0170 26020.6 -03495.4 -07.6509 26254.3
 14 10 2013  03 48  -21.0169 26020.6 -03495.4 -07.6508 26254.3
 14 10 2013  03 49  -21.0170 26020.5 -03495.4 -07.6508 26254.2
 14 10 2013  03 50  -21.0169 26020.7 -03495.4 -07.6508 26254.4
 14 10 2013  03 51  -21.0168 26020.6 -03495.4 -07.6508 26254.3
 14 10 2013  03 52  -21.0165 26020.6 -03495.3 -07.6507 26254.3
 14 10 2013  03 53  -21.0163 26020.5 -03495.3 -07.6506 26254.2
 14 10 2013  03 54  -21.0159 26020.4 -03495.2 -07.6504 26254.1
 14 10 2013  03 55  -21.0157 26020.2 -03495.1 -07.6503 26253.9
 14 10 2013  03 56  -21.0154 26020.0 -03495.0 -07.6502 26253.7
 14 10 2013  03 57  -21.0150 26020.0 -03495.0 -07.6502 26253.7
 14 10 2013  03 58  -21.0148 26019.9 -03495.0 -07.6502 26253.5
 14 10 2013  03 59  -21.0146 26019.8 -03495.0 -07.6503 26253.5
 14 10 2013  04 00  -21.0143 26020.0 -03495.2 -07.6505 26253.7
 14 10 2013  04 01  -21.0142 26020.0 -03495.2 -07.6506 26253.7
 14 10 2013  04 02  -21.0140 26020.0 -03495.3 -07.6508 26253.7
 14 10 2013  04 03  -21.0136 26020.0 -03495.3 -07.6509 26253.8
 14 10 2013  04 04  -21.0133 26020.1 -03495.4 -07.6509 26253.8
 14 10 2013  04 05  -21.0129 26020.2 -03495.5 -07.6511 26253.9
 14 10 2013  04 06  -21.0126 26020.3 -03495.6 -07.6513 26254.1
 14 10 2013  04 07  -21.0125 26020.4 -03495.7 -07.6515 26254.2
 14 10 2013  04 08  -21.0127 26020.6 -03495.8 -07.6517 26254.3
 14 10 2013  04 09  -21.0128 26020.6 -03495.9 -07.6519 26254.4
 14 10 2013  04 10  -21.0126 26020.7 -03496.0 -07.6520 26254.5
 14 10 2013  04 11  -21.0127 26020.8 -03496.0 -07.6521 26254.6
 14 10 2013  04 12  -21.0126 26021.0 -03496.1 -07.6522 26254.8
 14 10 2013  04 13  -21.0126 26021.0 -03496.2 -07.6524 26254.9
 14 10 2013  04 14  -21.0122 26021.2 -03496.2 -07.6524 26255.0
 14 10 2013  04 15  -21.0122 26021.2 -03496.3 -07.6525 26255.0
 14 10 2013  04 16  -21.0122 26021.1 -03496.2 -07.6524 26254.9
 14 10 2013  04 17  -21.0120 26021.3 -03496.2 -07.6525 26255.1
 14 10 2013  04 18  -21.0122 26021.1 -03496.2 -07.6525 26254.9
 14 10 2013  04 19  -21.0119 26020.9 -03496.1 -07.6523 26254.8
 14 10 2013  04 20  -21.0117 26021.1 -03496.2 -07.6524 26254.9
 14 10 2013  04 21  -21.0118 26020.9 -03496.1 -07.6522 26254.7
 14 10 2013  04 22  -21.0117 26021.0 -03496.2 -07.6524 26254.8
 14 10 2013  04 23  -21.0120 26020.9 -03496.2 -07.6524 26254.7
 14 10 2013  04 24  -21.0123 26020.8 -03496.1 -07.6524 26254.6
 14 10 2013  04 25  -21.0123 26020.9 -03496.2 -07.6525 26254.7
 14 10 2013  04 26  -21.0126 26020.9 -03496.2 -07.6526 26254.8
 14 10 2013  04 27  -21.0127 26021.1 -03496.3 -07.6527 26255.0
 14 10 2013  04 28  -21.0128 26021.3 -03496.4 -07.6529 26255.1
 14 10 2013  04 29  -21.0130 26021.2 -03496.4 -07.6528 26255.1
 14 10 2013  04 30  -21.0127 26021.6 -03496.6 -07.6531 26255.5
 14 10 2013  04 31  -21.0129 26021.5 -03496.6 -07.6531 26255.4
 14 10 2013  04 32  -21.0125 26021.8 -03496.6 -07.6532 26255.6
 14 10 2013  04 33  -21.0124 26021.8 -03496.6 -07.6532 26255.7
 14 10 2013  04 34  -21.0123 26021.9 -03496.7 -07.6534 26255.8
 14 10 2013  04 35  -21.0121 26022.1 -03496.8 -07.6534 26255.9
 14 10 2013  04 36  -21.0118 26022.2 -03496.8 -07.6535 26256.1
 14 10 2013  04 37  -21.0121 26022.0 -03496.9 -07.6536 26255.9
 14 10 2013  04 38  -21.0117 26022.0 -03496.7 -07.6533 26255.9
 14 10 2013  04 39  -21.0116 26022.2 -03496.9 -07.6536 26256.1
 14 10 2013  04 40  -21.0116 26021.9 -03496.7 -07.6533 26255.8
 14 10 2013  04 41  -21.0114 26022.3 -03496.9 -07.6537 26256.2
 14 10 2013  04 42  -21.0115 26022.4 -03497.0 -07.6537 26256.3
 14 10 2013  04 43  -21.0116 26022.3 -03497.0 -07.6538 26256.2
 14 10 2013  04 44  -21.0119 26022.6 -03497.1 -07.6539 26256.5
 14 10 2013  04 45  -21.0124 26022.2 -03497.0 -07.6537 26256.1
 14 10 2013  04 46  -21.0121 26022.3 -03496.9 -07.6537 26256.2
 14 10 2013  04 47  -21.0125 26022.0 -03496.8 -07.6535 26255.9
 14 10 2013  04 48  -21.0125 26021.8 -03496.7 -07.6532 26255.6
 14 10 2013  04 49  -21.0127 26021.7 -03496.6 -07.6531 26255.6
 14 10 2013  04 50  -21.0130 26021.6 -03496.6 -07.6531 26255.5
 14 10 2013  04 51  -21.0126 26021.7 -03496.6 -07.6531 26255.5
 14 10 2013  04 52  -21.0127 26021.6 -03496.6 -07.6530 26255.4
 14 10 2013  04 53  -21.0128 26021.7 -03496.6 -07.6532 26255.6
 14 10 2013  04 54  -21.0129 26021.6 -03496.6 -07.6532 26255.5
 14 10 2013  04 55  -21.0124 26021.7 -03496.6 -07.6532 26255.6
 14 10 2013  04 56  -21.0119 26021.7 -03496.6 -07.6532 26255.6
 14 10 2013  04 57  -21.0115 26021.7 -03496.6 -07.6531 26255.6
 14 10 2013  04 58  -21.0115 26022.0 -03496.8 -07.6535 26255.9
 14 10 2013  04 59  -21.0114 26021.9 -03496.8 -07.6535 26255.8
 14 10 2013  05 00  -21.0112 26022.1 -03496.9 -07.6536 26256.0
 14 10 2013  05 01  -21.0115 26022.3 -03497.0 -07.6538 26256.3
 14 10 2013  05 02  -21.0120 26022.5 -03497.1 -07.6539 26256.4
 14 10 2013  05 03  -21.0123 26023.0 -03497.4 -07.6544 26257.0
 14 10 2013  05 04  -21.0126 26023.0 -03497.4 -07.6544 26257.0
 14 10 2013  05 05  -21.0124 26023.3 -03497.4 -07.6545 26257.2
 14 10 2013  05 06  -21.0122 26023.1 -03497.3 -07.6542 26257.1
 14 10 2013  05 07  -21.0119 26023.4 -03497.4 -07.6543 26257.4
 14 10 2013  05 08  -21.0120 26023.3 -03497.3 -07.6542 26257.3
 14 10 2013  05 09  -21.0118 26023.6 -03497.4 -07.6543 26257.5
 14 10 2013  05 10  -21.0118 26023.6 -03497.4 -07.6543 26257.5
 14 10 2013  05 11  -21.0114 26024.2 -03497.6 -07.6545 26258.2
 14 10 2013  05 12  -21.0114 26024.3 -03497.7 -07.6548 26258.3
 14 10 2013  05 13  -21.0106 26024.7 -03497.8 -07.6547 26258.7
 14 10 2013  05 14  -21.0108 26024.5 -03497.7 -07.6547 26258.5
 14 10 2013  05 15  -21.0101 26025.2 -03498.0 -07.6550 26259.2
 14 10 2013  05 16  -21.0101 26024.7 -03497.7 -07.6547 26258.7
 14 10 2013  05 17  -21.0095 26025.4 -03498.0 -07.6550 26259.4
 14 10 2013  05 18  -21.0097 26025.3 -03498.0 -07.6550 26259.3
 14 10 2013  05 19  -21.0097 26025.5 -03498.0 -07.6551 26259.5
 14 10 2013  05 20  -21.0098 26025.5 -03498.0 -07.6550 26259.6
 14 10 2013  05 21  -21.0098 26025.4 -03497.9 -07.6549 26259.5
 14 10 2013  05 22  -21.0100 26025.6 -03498.0 -07.6549 26259.6
 14 10 2013  05 23  -21.0101 26025.7 -03497.9 -07.6548 26259.7
 14 10 2013  05 24  -21.0101 26025.7 -03497.9 -07.6548 26259.7
 14 10 2013  05 25  -21.0099 26025.7 -03497.8 -07.6546 26259.7
 14 10 2013  05 26  -21.0099 26025.8 -03497.9 -07.6547 26259.9
 14 10 2013  05 27  -21.0097 26026.0 -03497.9 -07.6547 26260.0
 14 10 2013  05 28  -21.0095 26026.2 -03498.0 -07.6548 26260.2
 14 10 2013  05 29  -21.0092 26026.4 -03498.0 -07.6549 26260.5
 14 10 2013  05 30  -21.0088 26026.8 -03498.2 -07.6551 26260.8
 14 10 2013  05 31  -21.0086 26027.0 -03498.3 -07.6552 26261.0
 14 10 2013  05 32  -21.0082 26027.1 -03498.3 -07.6552 26261.2
 14 10 2013  05 33  -21.0079 26027.3 -03498.4 -07.6553 26261.4
 14 10 2013  05 34  -21.0077 26027.5 -03498.4 -07.6554 26261.6
 14 10 2013  05 35  -21.0077 26027.4 -03498.4 -07.6553 26261.5
 14 10 2013  05 36  -21.0076 26027.5 -03498.4 -07.6553 26261.6
 14 10 2013  05 37  -21.0079 26027.7 -03498.4 -07.6553 26261.8
 14 10 2013  05 38  -21.0082 26028.0 -03498.6 -07.6555 26262.1
 14 10 2013  05 39  -21.0082 26028.2 -03498.6 -07.6555 26262.3
 14 10 2013  05 40  -21.0080 26028.4 -03498.6 -07.6555 26262.5
 14 10 2013  05 41  -21.0077 26028.7 -03498.7 -07.6555 26262.8
 14 10 2013  05 42  -21.0075 26028.8 -03498.6 -07.6555 26262.9
 14 10 2013  05 43  -21.0072 26028.8 -03498.6 -07.6554 26262.9
 14 10 2013  05 44  -21.0068 26028.8 -03498.5 -07.6553 26262.9
 14 10 2013  05 45  -21.0063 26028.9 -03498.5 -07.6551 26262.9
 14 10 2013  05 46  -21.0060 26028.9 -03498.5 -07.6551 26263.0
 14 10 2013  05 47  -21.0054 26029.2 -03498.6 -07.6552 26263.3
 14 10 2013  05 48  -21.0050 26029.2 -03498.6 -07.6552 26263.3
 14 10 2013  05 49  -21.0047 26029.2 -03498.5 -07.6551 26263.3
 14 10 2013  05 50  -21.0046 26029.3 -03498.6 -07.6552 26263.4
 14 10 2013  05 51  -21.0045 26029.3 -03498.5 -07.6551 26263.3
 14 10 2013  05 52  -21.0047 26029.3 -03498.5 -07.6550 26263.4
 14 10 2013  05 53  -21.0048 26029.4 -03498.5 -07.6550 26263.4
 14 10 2013  05 54  -21.0047 26029.3 -03498.5 -07.6549 26263.4
 14 10 2013  05 55  -21.0044 26029.4 -03498.5 -07.6549 26263.5
 14 10 2013  05 56  -21.0042 26029.4 -03498.4 -07.6548 26263.5
 14 10 2013  05 57  -21.0040 26029.4 -03498.4 -07.6548 26263.5
 14 10 2013  05 58  -21.0036 26029.5 -03498.4 -07.6547 26263.5
 14 10 2013  05 59  -21.0033 26029.5 -03498.4 -07.6547 26263.6
 14 10 2013  06 00  -21.0033 26029.6 -03498.4 -07.6547 26263.6
 14 10 2013  06 01  -21.0031 26029.7 -03498.4 -07.6547 26263.7
 14 10 2013  06 02  -21.0031 26029.8 -03498.4 -07.6548 26263.8
 14 10 2013  06 03  -21.0030 26029.9 -03498.5 -07.6548 26264.0
 14 10 2013  06 04  -21.0030 26030.0 -03498.5 -07.6548 26264.1
 14 10 2013  06 05  -21.0031 26030.1 -03498.6 -07.6549 26264.2
 14 10 2013  06 06  -21.0032 26030.2 -03498.6 -07.6549 26264.3
 14 10 2013  06 07  -21.0034 26030.3 -03498.6 -07.6549 26264.3
 14 10 2013  06 08  -21.0037 26030.3 -03498.6 -07.6549 26264.4
 14 10 2013  06 09  -21.0039 26030.4 -03498.6 -07.6549 26264.5
 14 10 2013  06 10  -21.0042 26030.4 -03498.6 -07.6548 26264.5
 14 10 2013  06 11  -21.0044 26030.6 -03498.5 -07.6547 26264.6
 14 10 2013  06 12  -21.0046 26030.6 -03498.5 -07.6547 26264.6
 14 10 2013  06 13  -21.0049 26030.6 -03498.5 -07.6546 26264.7
 14 10 2013  06 14  -21.0052 26030.7 -03498.5 -07.6545 26264.7
 14 10 2013  06 15  -21.0056 26030.6 -03498.4 -07.6544 26264.7
 14 10 2013  06 16  -21.0057 26030.6 -03498.3 -07.6543 26264.6
 14 10 2013  06 17  -21.0058 26030.5 -03498.2 -07.6541 26264.5
 14 10 2013  06 18  -21.0059 26030.5 -03498.1 -07.6539 26264.5
 14 10 2013  06 19  -21.0060 26030.4 -03498.1 -07.6538 26264.4
 14 10 2013  06 20  -21.0060 26030.4 -03498.0 -07.6536 26264.4
 14 10 2013  06 21  -21.0060 26030.3 -03497.9 -07.6535 26264.3
 14 10 2013  06 22  -21.0060 26030.2 -03497.8 -07.6533 26264.2
 14 10 2013  06 23  -21.0060 26030.2 -03497.8 -07.6533 26264.2
 14 10 2013  06 24  -21.0061 26030.1 -03497.7 -07.6531 26264.1
 14 10 2013  06 25  -21.0063 26030.1 -03497.8 -07.6532 26264.1
 14 10 2013  06 26  -21.0066 26030.1 -03497.8 -07.6532 26264.1
 14 10 2013  06 27  -21.0069 26030.2 -03497.7 -07.6531 26264.1
 14 10 2013  06 28  -21.0069 26030.2 -03497.7 -07.6531 26264.1
 14 10 2013  06 29  -21.0070 26030.2 -03497.7 -07.6531 26264.2
 14 10 2013  06 30  -21.0072 26030.2 -03497.7 -07.6530 26264.2
 14 10 2013  06 31  -21.0073 26030.1 -03497.6 -07.6529 26264.0
 14 10 2013  06 32  -21.0077 26029.8 -03497.5 -07.6527 26263.7
 14 10 2013  06 33  -21.0080 26029.3 -03497.2 -07.6522 26263.2
 14 10 2013  06 34  -21.0085 26028.6 -03496.8 -07.6516 26262.4
 14 10 2013  06 35  -21.0090 26028.0 -03496.5 -07.6510 26261.8
 14 10 2013  06 36  -21.0096 26027.5 -03496.2 -07.6506 26261.2
 14 10 2013  06 37  -21.0101 26027.1 -03496.0 -07.6502 26260.9
 14 10 2013  06 38  -21.0105 26026.9 -03495.9 -07.6501 26260.6
 14 10 2013  06 39  -21.0108 26026.9 -03495.9 -07.6501 26260.6
 14 10 2013  06 40  -21.0109 26026.9 -03495.9 -07.6501 26260.6
 14 10 2013  06 41  -21.0110 26027.0 -03495.9 -07.6502 26260.7
 14 10 2013  06 42  -21.0111 26027.0 -03496.0 -07.6503 26260.7
 14 10 2013  06 43  -21.0110 26027.0 -03496.0 -07.6503 26260.8
 14 10 2013  06 44  -21.0110 26027.1 -03496.1 -07.6504 26260.8
 14 10 2013  06 45  -21.0111 26027.1 -03496.1 -07.6504 26260.9
 14 10 2013  06 46  -21.0112 26027.0 -03496.1 -07.6504 26260.8
 14 10 2013  06 47  -21.0112 26027.0 -03496.0 -07.6503 26260.7
 14 10 2013  06 48  -21.0108 26026.9 -03496.0 -07.6503 26260.6
 14 10 2013  06 49  -21.0104 26026.8 -03496.0 -07.6502 26260.6
 14 10 2013  06 50  -21.0100 26026.7 -03495.9 -07.6502 26260.4
 14 10 2013  06 51  -21.0096 26026.7 -03496.0 -07.6503 26260.4
 14 10 2013  06 52  -21.0092 26026.8 -03496.0 -07.6504 26260.5
 14 10 2013  06 53  -21.0088 26026.6 -03496.0 -07.6504 26260.4
 14 10 2013  06 54  -21.0086 26026.3 -03495.9 -07.6503 26260.1
 14 10 2013  06 55  -21.0085 26026.1 -03495.8 -07.6502 26259.8
 14 10 2013  06 56  -21.0083 26025.9 -03495.7 -07.6500 26259.6
 14 10 2013  06 57  -21.0083 26025.8 -03495.7 -07.6500 26259.5
 14 10 2013  06 58  -21.0082 26025.8 -03495.8 -07.6502 26259.6
 14 10 2013  06 59  -21.0079 26025.9 -03495.9 -07.6503 26259.6
 14 10 2013  07 00  -21.0077 26025.9 -03495.9 -07.6504 26259.6
 14 10 2013  07 01  -21.0074 26025.9 -03496.0 -07.6506 26259.7
 14 10 2013  07 02  -21.0071 26026.0 -03496.1 -07.6507 26259.8
 14 10 2013  07 03  -21.0069 26026.3 -03496.2 -07.6509 26260.0
 14 10 2013  07 04  -21.0065 26026.5 -03496.3 -07.6511 26260.3
 14 10 2013  07 05  -21.0060 26026.7 -03496.5 -07.6514 26260.5
 14 10 2013  07 06  -21.0055 26026.9 -03496.6 -07.6517 26260.7
 14 10 2013  07 07  -21.0053 26027.2 -03496.8 -07.6520 26261.0
 14 10 2013  07 08  -21.0049 26027.3 -03496.9 -07.6522 26261.2
 14 10 2013  07 09  -21.0044 26027.5 -03497.0 -07.6524 26261.4
 14 10 2013  07 10  -21.0039 26027.5 -03497.1 -07.6525 26261.4
 14 10 2013  07 11  -21.0035 26027.6 -03497.2 -07.6526 26261.5
 14 10 2013  07 12  -21.0032 26027.6 -03497.2 -07.6527 26261.5
 14 10 2013  07 13  -21.0030 26027.7 -03497.2 -07.6528 26261.6
 14 10 2013  07 14  -21.0030 26027.7 -03497.3 -07.6529 26261.6
 14 10 2013  07 15  -21.0029 26027.8 -03497.4 -07.6530 26261.7
 14 10 2013  07 16  -21.0028 26027.9 -03497.4 -07.6531 26261.9
 14 10 2013  07 17  -21.0027 26028.0 -03497.5 -07.6532 26261.9
 14 10 2013  07 18  -21.0025 26028.0 -03497.5 -07.6532 26262.0
 14 10 2013  07 19  -21.0025 26028.1 -03497.5 -07.6532 26262.0
 14 10 2013  07 20  -21.0026 26028.1 -03497.6 -07.6533 26262.0
 14 10 2013  07 21  -21.0025 26028.1 -03497.6 -07.6533 26262.1
 14 10 2013  07 22  -21.0022 26028.0 -03497.5 -07.6532 26261.9
 14 10 2013  07 23  -21.0021 26027.7 -03497.4 -07.6531 26261.7
 14 10 2013  07 24  -21.0020 26027.6 -03497.3 -07.6528 26261.5
 14 10 2013  07 25  -21.0021 26027.4 -03497.2 -07.6527 26261.3
 14 10 2013  07 26  -21.0023 26027.1 -03497.1 -07.6526 26261.0
 14 10 2013  07 27  -21.0024 26026.8 -03496.9 -07.6523 26260.7
 14 10 2013  07 28  -21.0027 26026.8 -03496.9 -07.6523 26260.6
 14 10 2013  07 29  -21.0031 26027.1 -03497.1 -07.6526 26261.0
 14 10 2013  07 30  -21.0035 26027.7 -03497.4 -07.6531 26261.6
 14 10 2013  07 31  -21.0038 26028.2 -03497.7 -07.6537 26262.2
 14 10 2013  07 32  -21.0041 26028.6 -03498.1 -07.6543 26262.6
 14 10 2013  07 33  -21.0040 26029.1 -03498.3 -07.6546 26263.2
 14 10 2013  07 34  -21.0042 26029.4 -03498.4 -07.6548 26263.5
 14 10 2013  07 35  -21.0042 26029.7 -03498.5 -07.6550 26263.8
 14 10 2013  07 36  -21.0043 26029.9 -03498.5 -07.6550 26263.9
 14 10 2013  07 37  -21.0044 26029.8 -03498.4 -07.6547 26263.8
 14 10 2013  07 38  -21.0042 26029.6 -03498.2 -07.6544 26263.7
 14 10 2013  07 39  -21.0040 26029.3 -03498.1 -07.6541 26263.3
 14 10 2013  07 40  -21.0037 26029.4 -03498.0 -07.6540 26263.4
 14 10 2013  07 41  -21.0032 26029.3 -03498.0 -07.6539 26263.3
 14 10 2013  07 42  -21.0026 26029.5 -03498.0 -07.6540 26263.5
 14 10 2013  07 43  -21.0019 26029.5 -03498.1 -07.6540 26263.5
 14 10 2013  07 44  -21.0014 26029.3 -03498.0 -07.6538 26263.2
 14 10 2013  07 45  -21.0008 26028.9 -03497.8 -07.6536 26262.9
 14 10 2013  07 46  -21.0003 26028.5 -03497.6 -07.6532 26262.4
 14 10 2013  07 47  -20.9999 26028.3 -03497.5 -07.6532 26262.3
 14 10 2013  07 48  -20.9996 26028.3 -03497.5 -07.6532 26262.2
 14 10 2013  07 49  -20.9995 26028.7 -03497.8 -07.6537 26262.6
 14 10 2013  07 50  -20.9994 26028.7 -03498.0 -07.6540 26262.7
 14 10 2013  07 51  -20.9993 26028.9 -03498.1 -07.6543 26262.9
 14 10 2013  07 52  -20.9992 26029.2 -03498.3 -07.6546 26263.2
 14 10 2013  07 53  -20.9987 26029.8 -03498.6 -07.6552 26263.9
 14 10 2013  07 54  -20.9982 26030.4 -03499.0 -07.6558 26264.5
 14 10 2013  07 55  -20.9978 26030.8 -03499.3 -07.6564 26265.0
 14 10 2013  07 56  -20.9975 26031.2 -03499.6 -07.6568 26265.4
 14 10 2013  07 57  -20.9973 26031.4 -03499.7 -07.6569 26265.6
 14 10 2013  07 58  -20.9970 26031.3 -03499.7 -07.6569 26265.5
 14 10 2013  07 59  -20.9967 26031.1 -03499.5 -07.6567 26265.3
 14 10 2013  08 00  -20.9965 26030.4 -03499.2 -07.6562 26264.6
 14 10 2013  08 01  -20.9964 26029.9 -03498.9 -07.6556 26264.0
 14 10 2013  08 02  -20.9963 26029.7 -03498.8 -07.6555 26263.7
 14 10 2013  08 03  -20.9960 26029.7 -03498.8 -07.6556 26263.8
 14 10 2013  08 04  -20.9957 26029.8 -03498.9 -07.6557 26263.9
 14 10 2013  08 05  -20.9955 26030.0 -03499.0 -07.6559 26264.1
 14 10 2013  08 06  -20.9951 26030.1 -03499.1 -07.6561 26264.2
 14 10 2013  08 07  -20.9952 26030.1 -03499.2 -07.6562 26264.3
 14 10 2013  08 08  -20.9952 26030.3 -03499.3 -07.6565 26264.5
 14 10 2013  08 09  -20.9955 26031.0 -03499.7 -07.6571 26265.2
 14 10 2013  08 10  -20.9958 26031.7 -03500.2 -07.6579 26265.9
 14 10 2013  08 11  -20.9958 26032.3 -03500.5 -07.6586 26266.6
 14 10 2013  08 12  -20.9955 26032.8 -03500.8 -07.6590 26267.2
 14 10 2013  08 13  -20.9949 26033.0 -03500.9 -07.6591 26267.3
 14 10 2013  08 14  -20.9945 26033.0 -03500.9 -07.6591 26267.3
 14 10 2013  08 15  -20.9940 26032.9 -03500.8 -07.6590 26267.3
 14 10 2013  08 16  -20.9934 26033.0 -03500.8 -07.6589 26267.3
 14 10 2013  08 17  -20.9932 26033.3 -03500.9 -07.6590 26267.6
 14 10 2013  08 18  -20.9923 26035.2 -03501.8 -07.6605 26269.6
 14 10 2013  08 19  -20.9922 26036.6 -03502.6 -07.6619 26271.1
 14 10 2013  08 20  -20.9929 26037.0 -03502.9 -07.6624 26271.6
 14 10 2013  08 21  -20.9934 26037.1 -03502.9 -07.6624 26271.7
 14 10 2013  08 22  -20.9941 26037.4 -03502.9 -07.6622 26272.0
 14 10 2013  08 23  -20.9948 26037.9 -03503.0 -07.6622 26272.4
 14 10 2013  08 24  -20.9952 26038.6 -03503.2 -07.6624 26273.2
 14 10 2013  08 25  -20.9960 26039.4 -03503.4 -07.6628 26274.0
 14 10 2013  08 26  -20.9965 26040.5 -03503.9 -07.6633 26275.1
 14 10 2013  08 27  -20.9971 26041.2 -03504.1 -07.6636 26275.9
 14 10 2013  08 28  -20.9979 26041.5 -03504.0 -07.6634 26276.2
 14 10 2013  08 29  -20.9986 26041.7 -03503.9 -07.6631 26276.4
 14 10 2013  08 30  -20.9990 26041.8 -03503.7 -07.6627 26276.4
 14 10 2013  08 31  -20.9992 26041.6 -03503.4 -07.6620 26276.2
 14 10 2013  08 32  -20.9997 26041.4 -03503.1 -07.6614 26276.0
 14 10 2013  08 33  -21.0003 26041.5 -03502.9 -07.6610 26276.0
 14 10 2013  08 34  -21.0005 26040.9 -03502.5 -07.6604 26275.4
 14 10 2013  08 35  -21.0003 26040.2 -03502.1 -07.6595 26274.7
 14 10 2013  08 36  -21.0002 26039.7 -03501.7 -07.6588 26274.0
 14 10 2013  08 37  -21.0000 26039.2 -03501.4 -07.6583 26273.6
 14 10 2013  08 38  -21.0000 26039.1 -03501.1 -07.6579 26273.4
 14 10 2013  08 39  -21.0008 26038.4 -03501.0 -07.6578 26272.7
 14 10 2013  08 40  -21.0021 26037.4 -03500.5 -07.6571 26271.7
 14 10 2013  08 41  -21.0034 26036.4 -03500.1 -07.6563 26270.6
 14 10 2013  08 42  -21.0040 26035.2 -03499.4 -07.6553 26269.4
 14 10 2013  08 43  -21.0035 26034.0 -03498.8 -07.6543 26268.1
 14 10 2013  08 44  -21.0025 26033.3 -03498.4 -07.6536 26267.3
 14 10 2013  08 45  -21.0012 26032.5 -03498.1 -07.6533 26266.5
 14 10 2013  08 46  -21.0004 26031.4 -03497.8 -07.6528 26265.3
 14 10 2013  08 47  -21.0002 26031.6 -03498.0 -07.6533 26265.6
 14 10 2013  08 48  -20.9998 26032.0 -03498.5 -07.6542 26266.0
 14 10 2013  08 49  -20.9998 26032.5 -03499.1 -07.6554 26266.6
 14 10 2013  08 50  -20.9997 26033.0 -03499.6 -07.6563 26267.1
 14 10 2013  08 51  -21.0004 26033.1 -03500.0 -07.6571 26267.3
 14 10 2013  08 52  -21.0013 26033.1 -03500.2 -07.6575 26267.3
 14 10 2013  08 53  -21.0021 26032.1 -03499.9 -07.6572 26266.4
 14 10 2013  08 54  -21.0028 26031.2 -03499.5 -07.6566 26265.4
 14 10 2013  08 55  -21.0032 26030.7 -03499.2 -07.6562 26264.9
 14 10 2013  08 56  -21.0034 26030.9 -03499.3 -07.6562 26265.0
 14 10 2013  08 57  -21.0035 26031.6 -03499.7 -07.6569 26265.8
 14 10 2013  08 58  -21.0034 26033.2 -03500.7 -07.6586 26267.5
 14 10 2013  08 59  -21.0034 26034.5 -03501.6 -07.6602 26269.0
 14 10 2013  09 00  -21.0043 26035.5 -03502.4 -07.6616 26270.0
 14 10 2013  09 01  -21.0055 26036.2 -03502.9 -07.6625 26270.8
 14 10 2013  09 02  -21.0069 26036.7 -03503.2 -07.6629 26271.4
 14 10 2013  09 03  -21.0076 26037.4 -03503.3 -07.6631 26272.0
 14 10 2013  09 04  -21.0081 26038.0 -03503.5 -07.6632 26272.7
 14 10 2013  09 05  -21.0086 26038.5 -03503.5 -07.6632 26273.1
 14 10 2013  09 06  -21.0094 26039.3 -03503.7 -07.6635 26273.9
 14 10 2013  09 07  -21.0110 26040.1 -03504.0 -07.6638 26274.8
 14 10 2013  09 08  -21.0119 26040.4 -03503.9 -07.6635 26275.1
 14 10 2013  09 09  -21.0128 26040.7 -03503.8 -07.6632 26275.4
 14 10 2013  09 10  -21.0132 26041.0 -03503.7 -07.6628 26275.7
 14 10 2013  09 11  -21.0131 26040.7 -03503.2 -07.6618 26275.2
 14 10 2013  09 12  -21.0126 26040.6 -03502.9 -07.6612 26275.1
 14 10 2013  09 13  -21.0121 26041.0 -03502.9 -07.6612 26275.5
 14 10 2013  09 14  -21.0122 26040.8 -03502.8 -07.6609 26275.3
 14 10 2013  09 15  -21.0123 26039.4 -03502.1 -07.6598 26273.8
 14 10 2013  09 16  -21.0125 26037.6 -03500.9 -07.6579 26272.0
 14 10 2013  09 17  -21.0120 26036.9 -03500.6 -07.6574 26271.2
 14 10 2013  09 18  -21.0123 26037.9 -03501.2 -07.6583 26272.2
 14 10 2013  09 19  -21.0132 26039.6 -03502.2 -07.6600 26274.0
 14 10 2013  09 20  -21.0137 26040.5 -03503.0 -07.6614 26275.1
 14 10 2013  09 21  -21.0142 26039.5 -03502.8 -07.6612 26274.1
 14 10 2013  09 22  -21.0146 26037.5 -03501.7 -07.6595 26272.0
 14 10 2013  09 23  -21.0160 26036.0 -03500.6 -07.6576 26270.3
 14 10 2013  09 24  -21.0183 26035.4 -03500.0 -07.6564 26269.6
 14 10 2013  09 25  -21.0184 26035.1 -03499.5 -07.6554 26269.2
 14 10 2013  09 26  -21.0183 26035.2 -03499.5 -07.6554 26269.4
 14 10 2013  09 27  -21.0179 26035.2 -03499.6 -07.6557 26269.3
 14 10 2013  09 28  -21.0174 26034.7 -03499.7 -07.6561 26268.8
 14 10 2013  09 29  -21.0173 26034.7 -03500.2 -07.6571 26268.9
 14 10 2013  09 30  -21.0182 26035.4 -03500.9 -07.6585 26269.7
 14 10 2013  09 31  -21.0192 26036.9 -03502.0 -07.6603 26271.4
 14 10 2013  09 32  -21.0213 26038.3 -03502.8 -07.6617 26272.8
 14 10 2013  09 33  -21.0238 26039.4 -03503.3 -07.6624 26274.0
 14 10 2013  09 34  -21.0255 26040.5 -03503.5 -07.6627 26275.1
 14 10 2013  09 35  -21.0271 26041.3 -03503.6 -07.6625 26276.0
 14 10 2013  09 36  -21.0280 26041.6 -03503.3 -07.6619 26276.2
 14 10 2013  09 37  -21.0279 26042.0 -03503.2 -07.6614 26276.6
 14 10 2013  09 38  -21.0275 26041.5 -03502.7 -07.6605 26276.0
 14 10 2013  09 39  -21.0291 26041.1 -03502.4 -07.6601 26275.6
 14 10 2013  09 40  -21.0288 26040.5 -03502.1 -07.6595 26274.9
 14 10 2013  09 41  -21.0277 26039.2 -03501.5 -07.6586 26273.6
 14 10 2013  09 42  -21.0269 26038.0 -03501.1 -07.6581 26272.3
 14 10 2013  09 43  -21.0269 26037.3 -03501.0 -07.6581 26271.6
 14 10 2013  09 44  -21.0268 26036.7 -03501.0 -07.6583 26271.0
 14 10 2013  09 45  -21.0269 26036.6 -03501.2 -07.6587 26270.9
 14 10 2013  09 46  -21.0274 26036.7 -03501.4 -07.6592 26271.1
 14 10 2013  09 47  -21.0294 26037.3 -03501.8 -07.6599 26271.8
 14 10 2013  09 48  -21.0302 26037.9 -03502.1 -07.6603 26272.4
 14 10 2013  09 49  -21.0306 26038.4 -03502.2 -07.6604 26272.9
 14 10 2013  09 50  -21.0304 26038.6 -03502.2 -07.6602 26273.1
 14 10 2013  09 51  -21.0307 26038.7 -03502.1 -07.6600 26273.2
 14 10 2013  09 52  -21.0312 26038.7 -03501.9 -07.6596 26273.2
 14 10 2013  09 53  -21.0319 26038.8 -03501.8 -07.6595 26273.2
 14 10 2013  09 54  -21.0322 26038.5 -03501.7 -07.6592 26272.9
 14 10 2013  09 55  -21.0330 26038.4 -03501.7 -07.6593 26272.8
 14 10 2013  09 56  -21.0333 26038.2 -03501.7 -07.6593 26272.7
 14 10 2013  09 57  -21.0331 26038.2 -03501.7 -07.6593 26272.6
 14 10 2013  09 58  -21.0325 26038.2 -03501.8 -07.6596 26272.6
 14 10 2013  09 59  -21.0328 26038.1 -03501.9 -07.6598 26272.6
 14 10 2013  10 00  -21.0331 26038.2 -03502.1 -07.6603 26272.7
 14 10 2013  10 01  -21.0334 26038.2 -03502.3 -07.6606 26272.7
 14 10 2013  10 02  -21.0335 26038.2 -03502.3 -07.6606 26272.6
 14 10 2013  10 03  -21.0337 26038.3 -03502.3 -07.6607 26272.8
 14 10 2013  10 04  -21.0342 26038.8 -03502.6 -07.6610 26273.3
 14 10 2013  10 05  -21.0354 26039.0 -03502.8 -07.6614 26273.5
 14 10 2013  10 06  -21.0350 26039.0 -03502.8 -07.6615 26273.6
 14 10 2013  10 07  -21.0348 26038.7 -03502.7 -07.6614 26273.3
 14 10 2013  10 08  -21.0359 26038.9 -03502.9 -07.6617 26273.4
 14 10 2013  10 09  -21.0365 26039.0 -03503.0 -07.6620 26273.6
 14 10 2013  10 10  -21.0372 26039.1 -03503.1 -07.6621 26273.6
 14 10 2013  10 11  -21.0375 26039.4 -03503.4 -07.6627 26274.1
 14 10 2013  10 12  -21.0376 26039.5 -03503.6 -07.6631 26274.1
 14 10 2013  10 13  -21.0373 26039.6 -03503.8 -07.6634 26274.3
 14 10 2013  10 14  -21.0372 26039.8 -03503.9 -07.6637 26274.5
 14 10 2013  10 15  -21.0375 26039.8 -03504.0 -07.6639 26274.5
 14 10 2013  10 16  -21.0364 26039.6 -03503.9 -07.6636 26274.3
 14 10 2013  10 17  -21.0363 26039.4 -03503.7 -07.6634 26274.0
 14 10 2013  10 18  -21.0375 26039.7 -03504.0 -07.6639 26274.4
 14 10 2013  10 19  -21.0377 26040.2 -03504.3 -07.6645 26274.9
 14 10 2013  10 20  -21.0387 26041.0 -03504.8 -07.6653 26275.8
 14 10 2013  10 21  -21.0395 26041.6 -03505.1 -07.6657 26276.4
 14 10 2013  10 22  -21.0417 26041.1 -03504.8 -07.6652 26275.9
 14 10 2013  10 23  -21.0427 26039.1 -03503.8 -07.6635 26273.8
 14 10 2013  10 24  -21.0437 26036.6 -03502.6 -07.6616 26271.2
 14 10 2013  10 25  -21.0453 26034.7 -03501.9 -07.6608 26269.2
 14 10 2013  10 26  -21.0465 26033.4 -03501.6 -07.6606 26267.9
 14 10 2013  10 27  -21.0470 26033.2 -03501.9 -07.6612 26267.6
 14 10 2013  10 28  -21.0481 26032.9 -03502.2 -07.6620 26267.5
 14 10 2013  10 29  -21.0494 26032.7 -03502.5 -07.6627 26267.3
 14 10 2013  10 30  -21.0502 26032.0 -03502.6 -07.6630 26266.6
 14 10 2013  10 31  -21.0506 26030.9 -03502.4 -07.6630 26265.5
 14 10 2013  10 32  -21.0511 26030.3 -03502.4 -07.6632 26264.9
 14 10 2013  10 33  -21.0522 26030.1 -03502.5 -07.6635 26264.7
 14 10 2013  10 34  -21.0550 26030.8 -03503.1 -07.6646 26265.4
 14 10 2013  10 35  -21.0564 26031.3 -03503.5 -07.6652 26266.0
 14 10 2013  10 36  -21.0571 26031.8 -03503.7 -07.6656 26266.5
 14 10 2013  10 37  -21.0568 26032.0 -03503.7 -07.6656 26266.7
 14 10 2013  10 38  -21.0568 26032.0 -03503.7 -07.6654 26266.8
 14 10 2013  10 39  -21.0567 26032.1 -03503.6 -07.6651 26266.8
 14 10 2013  10 40  -21.0570 26032.0 -03503.4 -07.6649 26266.7
 14 10 2013  10 41  -21.0575 26032.1 -03503.4 -07.6648 26266.8
 14 10 2013  10 42  -21.0583 26032.4 -03503.4 -07.6646 26267.1
 14 10 2013  10 43  -21.0592 26032.4 -03503.2 -07.6643 26267.1
 14 10 2013  10 44  -21.0588 26032.4 -03503.0 -07.6637 26267.1
 14 10 2013  10 45  -21.0582 26032.4 -03502.7 -07.6633 26267.0
 14 10 2013  10 46  -21.0586 26033.0 -03502.9 -07.6634 26267.6
 14 10 2013  10 47  -21.0590 26034.1 -03503.2 -07.6638 26268.7
 14 10 2013  10 48  -21.0592 26035.3 -03503.5 -07.6641 26270.0
 14 10 2013  10 49  -21.0592 26036.6 -03503.8 -07.6643 26271.3
 14 10 2013  10 50  -21.0597 26037.8 -03503.8 -07.6641 26272.4
 14 10 2013  10 51  -21.0595 26038.9 -03503.8 -07.6638 26273.5
 14 10 2013  10 52  -21.0596 26039.8 -03503.7 -07.6633 26274.5
 14 10 2013  10 53  -21.0599 26040.4 -03503.4 -07.6623 26275.0
 14 10 2013  10 54  -21.0588 26041.3 -03503.1 -07.6615 26275.9
 14 10 2013  10 55  -21.0585 26042.0 -03502.8 -07.6606 26276.5
 14 10 2013  10 56  -21.0577 26042.9 -03502.6 -07.6600 26277.4
 14 10 2013  10 57  -21.0572 26043.2 -03502.2 -07.6590 26277.6
 14 10 2013  10 58  -21.0577 26043.5 -03502.0 -07.6584 26277.8
 14 10 2013  10 59  -21.0577 26044.0 -03501.9 -07.6581 26278.3
 14 10 2013  11 00  -21.0564 26044.2 -03501.6 -07.6574 26278.6
 14 10 2013  11 01  -21.0548 26043.4 -03500.8 -07.6558 26277.6
 14 10 2013  11 02  -21.0561 26042.3 -03500.0 -07.6544 26276.4
 14 10 2013  11 03  -21.0591 26041.7 -03499.5 -07.6536 26275.8
 14 10 2013  11 04  -21.0615 26040.5 -03499.0 -07.6529 26274.5
 14 10 2013  11 05  -21.0620 26038.5 -03498.4 -07.6520 26272.5
 14 10 2013  11 06  -21.0604 26036.9 -03497.9 -07.6515 26270.8
 14 10 2013  11 07  -21.0608 26036.4 -03498.1 -07.6521 26270.4
 14 10 2013  11 08  -21.0623 26037.2 -03498.9 -07.6536 26271.2
 14 10 2013  11 09  -21.0632 26037.3 -03499.3 -07.6544 26271.4
 14 10 2013  11 10  -21.0631 26036.7 -03499.3 -07.6545 26270.8
 14 10 2013  11 11  -21.0625 26036.7 -03499.3 -07.6546 26270.7
 14 10 2013  11 12  -21.0620 26037.6 -03499.7 -07.6551 26271.8
 14 10 2013  11 13  -21.0623 26038.8 -03500.1 -07.6557 26273.0
 14 10 2013  11 14  -21.0627 26039.7 -03500.3 -07.6559 26273.9
 14 10 2013  11 15  -21.0633 26041.1 -03500.6 -07.6562 26275.3
 14 10 2013  11 16  -21.0637 26043.4 -03501.1 -07.6567 26277.7
 14 10 2013  11 17  -21.0635 26044.3 -03501.0 -07.6560 26278.5
 14 10 2013  11 18  -21.0618 26045.5 -03500.8 -07.6553 26279.7
 14 10 2013  11 19  -21.0593 26047.4 -03500.8 -07.6546 26281.6
 14 10 2013  11 20  -21.0592 26048.8 -03500.5 -07.6537 26282.9
 14 10 2013  11 21  -21.0594 26050.3 -03500.4 -07.6530 26284.4
 14 10 2013  11 22  -21.0595 26051.6 -03500.2 -07.6523 26285.7
 14 10 2013  11 23  -21.0597 26053.1 -03500.0 -07.6514 26287.2
 14 10 2013  11 24  -21.0610 26053.1 -03499.3 -07.6499 26287.1
 14 10 2013  11 25  -21.0624 26054.1 -03499.3 -07.6496 26288.1
 14 10 2013  11 26  -21.0613 26054.3 -03498.9 -07.6487 26288.2
 14 10 2013  11 27  -21.0616 26053.1 -03498.0 -07.6471 26286.9
 14 10 2013  11 28  -21.0637 26052.2 -03497.4 -07.6460 26285.9
 14 10 2013  11 29  -21.0657 26051.4 -03497.0 -07.6454 26285.1
 14 10 2013  11 30  -21.0666 26051.9 -03497.2 -07.6456 26285.6
 14 10 2013  11 31  -21.0675 26051.3 -03497.0 -07.6453 26285.0
 14 10 2013  11 32  -21.0680 26050.8 -03496.7 -07.6449 26284.4
 14 10 2013  11 33  -21.0682 26051.1 -03496.8 -07.6449 26284.8
 14 10 2013  11 34  -21.0681 26051.0 -03496.6 -07.6445 26284.7
 14 10 2013  11 35  -21.0690 26050.7 -03496.3 -07.6440 26284.2
 14 10 2013  11 36  -21.0695 26051.0 -03496.3 -07.6441 26284.6
 14 10 2013  11 37  -21.0678 26050.2 -03496.0 -07.6435 26283.8
 14 10 2013  11 38  -21.0671 26048.3 -03495.3 -07.6426 26281.8
 14 10 2013  11 39  -21.0679 26046.4 -03494.9 -07.6422 26279.8
 14 10 2013  11 40  -21.0691 26044.5 -03494.5 -07.6420 26277.9
 14 10 2013  11 41  -21.0699 26043.3 -03494.4 -07.6421 26276.7
 14 10 2013  11 42  -21.0705 26042.3 -03494.5 -07.6425 26275.7
 14 10 2013  11 43  -21.0713 26041.5 -03494.6 -07.6431 26275.0
 14 10 2013  11 44  -21.0716 26040.5 -03494.8 -07.6438 26274.0
 14 10 2013  11 45  -21.0713 26040.6 -03495.4 -07.6449 26274.1
 14 10 2013  11 46  -21.0709 26042.0 -03496.3 -07.6466 26275.7
 14 10 2013  11 47  -21.0708 26044.1 -03497.3 -07.6482 26277.8
 14 10 2013  11 48  -21.0703 26045.7 -03497.9 -07.6489 26279.5
 14 10 2013  11 49  -21.0684 26046.9 -03497.9 -07.6487 26280.8
 14 10 2013  11 50  -21.0673 26049.0 -03498.4 -07.6491 26282.9
 14 10 2013  11 51  -21.0663 26051.5 -03498.8 -07.6491 26285.4
 14 10 2013  11 52  -21.0664 26052.3 -03498.3 -07.6480 26286.1
 14 10 2013  11 53  -21.0671 26053.2 -03498.1 -07.6472 26287.0
 14 10 2013  11 54  -21.0668 26054.1 -03497.8 -07.6464 26287.9
 14 10 2013  11 55  -21.0663 26054.2 -03497.3 -07.6452 26287.9
 14 10 2013  11 56  -21.0674 26054.7 -03497.1 -07.6446 26288.3
 14 10 2013  11 57  -21.0683 26055.0 -03496.9 -07.6441 26288.6
 14 10 2013  11 58  -21.0693 26054.2 -03496.3 -07.6431 26287.8
 14 10 2013  11 59  -21.0706 26053.8 -03496.1 -07.6427 26287.3
 14 10 2013  12 00  -21.0715 26053.9 -03496.1 -07.6427 26287.4
 14 10 2013  12 01  -21.0726 26053.2 -03495.8 -07.6422 26286.7
 14 10 2013  12 02  -21.0735 26052.3 -03495.5 -07.6418 26285.7
 14 10 2013  12 03  -21.0749 26051.3 -03495.3 -07.6417 26284.7
 14 10 2013  12 04  -21.0765 26050.7 -03495.3 -07.6419 26284.1
 14 10 2013  12 05  -21.0773 26050.0 -03495.3 -07.6421 26283.5
 14 10 2013  12 06  -21.0783 26049.0 -03495.2 -07.6422 26282.5
 14 10 2013  12 07  -21.0799 26047.7 -03495.1 -07.6424 26281.2
 14 10 2013  12 08  -21.0813 26046.7 -03495.2 -07.6428 26280.1
 14 10 2013  12 09  -21.0826 26045.7 -03495.4 -07.6435 26279.2
 14 10 2013  12 10  -21.0843 26044.0 -03495.2 -07.6437 26277.5
 14 10 2013  12 11  -21.0846 26043.1 -03495.3 -07.6442 26276.6
 14 10 2013  12 12  -21.0848 26042.0 -03495.4 -07.6447 26275.5
 14 10 2013  12 13  -21.0850 26041.5 -03495.8 -07.6456 26275.0
 14 10 2013  12 14  -21.0855 26040.1 -03495.8 -07.6460 26273.7
 14 10 2013  12 15  -21.0861 26039.8 -03496.3 -07.6471 26273.4
 14 10 2013  12 16  -21.0862 26039.7 -03496.8 -07.6483 26273.5
 14 10 2013  12 17  -21.0856 26039.5 -03497.1 -07.6490 26273.3
 14 10 2013  12 18  -21.0855 26039.2 -03497.4 -07.6497 26273.0
 14 10 2013  12 19  -21.0849 26039.0 -03497.7 -07.6505 26272.9
 14 10 2013  12 20  -21.0839 26038.8 -03497.9 -07.6510 26272.7
 14 10 2013  12 21  -21.0835 26038.5 -03498.1 -07.6515 26272.4
 14 10 2013  12 22  -21.0831 26038.7 -03498.5 -07.6523 26272.7
 14 10 2013  12 23  -21.0832 26039.4 -03499.0 -07.6532 26273.5
 14 10 2013  12 24  -21.0832 26040.3 -03499.4 -07.6538 26274.3
 14 10 2013  12 25  -21.0829 26041.0 -03499.6 -07.6539 26275.1
 14 10 2013  12 26  -21.0822 26041.1 -03499.4 -07.6536 26275.2
 14 10 2013  12 27  -21.0819 26041.1 -03499.3 -07.6533 26275.2
 14 10 2013  12 28  -21.0818 26041.3 -03499.2 -07.6531 26275.3
 14 10 2013  12 29  -21.0822 26041.6 -03499.3 -07.6532 26275.7
 14 10 2013  12 30  -21.0823 26042.2 -03499.4 -07.6533 26276.2
 14 10 2013  12 31  -21.0823 26042.5 -03499.3 -07.6530 26276.5
 14 10 2013  12 32  -21.0824 26042.4 -03499.1 -07.6526 26276.5
 14 10 2013  12 33  -21.0821 26042.3 -03498.9 -07.6521 26276.2
 14 10 2013  12 34  -21.0818 26041.9 -03498.6 -07.6516 26275.9
 14 10 2013  12 35  -21.0816 26042.0 -03498.5 -07.6514 26276.0
 14 10 2013  12 36  -21.0815 26042.0 -03498.4 -07.6510 26275.9
 14 10 2013  12 37  -21.0809 26042.4 -03498.4 -07.6510 26276.4
 14 10 2013  12 38  -21.0804 26043.0 -03498.5 -07.6511 26277.0
 14 10 2013  12 39  -21.0799 26043.6 -03498.6 -07.6510 26277.6
 14 10 2013  12 40  -21.0800 26043.7 -03498.2 -07.6502 26277.6
 14 10 2013  12 41  -21.0800 26044.2 -03498.0 -07.6497 26278.0
 14 10 2013  12 42  -21.0785 26044.3 -03497.6 -07.6487 26278.1
 14 10 2013  12 43  -21.0771 26044.8 -03497.4 -07.6481 26278.6
 14 10 2013  12 44  -21.0763 26045.6 -03497.4 -07.6479 26279.4
 14 10 2013  12 45  -21.0759 26046.6 -03497.4 -07.6476 26280.4
 14 10 2013  12 46  -21.0756 26047.7 -03497.3 -07.6472 26281.5
 14 10 2013  12 47  -21.0751 26048.9 -03497.3 -07.6466 26282.7
 14 10 2013  12 48  -21.0751 26049.4 -03496.9 -07.6457 26283.1
 14 10 2013  12 49  -21.0756 26049.4 -03496.4 -07.6447 26283.0
 14 10 2013  12 50  -21.0754 26049.2 -03495.9 -07.6436 26282.7
 14 10 2013  12 51  -21.0753 26049.1 -03495.6 -07.6430 26282.6
 14 10 2013  12 52  -21.0752 26050.1 -03495.9 -07.6433 26283.6
 14 10 2013  12 53  -21.0751 26051.6 -03496.3 -07.6437 26285.2
 14 10 2013  12 54  -21.0751 26054.0 -03496.8 -07.6442 26287.7
 14 10 2013  12 55  -21.0754 26056.4 -03497.1 -07.6442 26290.0
 14 10 2013  12 56  -21.0753 26057.5 -03496.6 -07.6428 26291.1
 14 10 2013  12 57  -21.0745 26058.6 -03496.3 -07.6417 26292.1
 14 10 2013  12 58  -21.0741 26058.6 -03495.6 -07.6402 26292.0
 14 10 2013  12 59  -21.0744 26058.9 -03495.3 -07.6394 26292.3
 14 10 2013  13 00  -21.0747 26059.4 -03495.1 -07.6389 26292.8
 14 10 2013  13 01  -21.0741 26059.2 -03494.6 -07.6380 26292.5
 14 10 2013  13 02  -21.0736 26060.6 -03494.8 -07.6380 26293.9
 14 10 2013  13 03  -21.0744 26061.3 -03494.8 -07.6377 26294.6
 14 10 2013  13 04  -21.0749 26062.5 -03494.9 -07.6376 26295.8
 14 10 2013  13 05  -21.0748 26064.6 -03495.3 -07.6378 26298.0
 14 10 2013  13 06  -21.0757 26065.6 -03495.1 -07.6371 26298.9
 14 10 2013  13 07  -21.0760 26064.6 -03494.1 -07.6352 26297.8
 14 10 2013  13 08  -21.0765 26063.0 -03493.2 -07.6337 26296.1
 14 10 2013  13 09  -21.0769 26062.1 -03492.8 -07.6332 26295.1
 14 10 2013  13 10  -21.0758 26061.8 -03492.7 -07.6330 26294.8
 14 10 2013  13 11  -21.0766 26062.3 -03493.1 -07.6338 26295.4
 14 10 2013  13 12  -21.0782 26062.3 -03493.1 -07.6338 26295.3
 14 10 2013  13 13  -21.0797 26061.3 -03492.7 -07.6333 26294.3
 14 10 2013  13 14  -21.0801 26060.8 -03492.5 -07.6330 26293.7
 14 10 2013  13 15  -21.0803 26060.1 -03492.5 -07.6331 26293.0
 14 10 2013  13 16  -21.0806 26060.1 -03492.8 -07.6337 26293.1
 14 10 2013  13 17  -21.0806 26061.3 -03493.6 -07.6350 26294.5
 14 10 2013  13 18  -21.0813 26062.4 -03494.1 -07.6360 26295.6
 14 10 2013  13 19  -21.0812 26061.7 -03493.9 -07.6356 26294.9
 14 10 2013  13 20  -21.0816 26062.0 -03494.1 -07.6361 26295.1
 14 10 2013  13 21  -21.0816 26062.9 -03494.6 -07.6367 26296.1
 14 10 2013  13 22  -21.0814 26062.8 -03494.5 -07.6367 26296.0
 14 10 2013  13 23  -21.0805 26062.4 -03494.4 -07.6365 26295.7
 14 10 2013  13 24  -21.0807 26063.0 -03494.6 -07.6369 26296.2
 14 10 2013  13 25  -21.0812 26062.5 -03494.5 -07.6367 26295.8
 14 10 2013  13 26  -21.0809 26061.8 -03494.1 -07.6360 26295.0
 14 10 2013  13 27  -21.0815 26060.7 -03493.7 -07.6355 26293.9
 14 10 2013  13 28  -21.0817 26061.4 -03494.0 -07.6359 26294.6
 14 10 2013  13 29  -21.0822 26063.3 -03494.6 -07.6368 26296.6
 14 10 2013  13 30  -21.0828 26064.0 -03494.5 -07.6364 26297.3
 14 10 2013  13 31  -21.0831 26064.5 -03494.3 -07.6357 26297.7
 14 10 2013  13 32  -21.0823 26064.3 -03493.7 -07.6345 26297.4
 14 10 2013  13 33  -21.0820 26064.0 -03493.3 -07.6337 26297.1
 14 10 2013  13 34  -21.0821 26064.7 -03493.4 -07.6337 26297.8
 14 10 2013  13 35  -21.0822 26064.8 -03493.3 -07.6334 26297.9
 14 10 2013  13 36  -21.0822 26064.5 -03493.1 -07.6332 26297.6
 14 10 2013  13 37  -21.0821 26063.6 -03492.8 -07.6328 26296.6
 14 10 2013  13 38  -21.0828 26063.0 -03492.7 -07.6328 26296.0
 14 10 2013  13 39  -21.0835 26062.8 -03492.7 -07.6328 26295.8
 14 10 2013  13 40  -21.0843 26062.4 -03492.7 -07.6329 26295.4
 14 10 2013  13 41  -21.0831 26061.6 -03492.3 -07.6322 26294.5
 14 10 2013  13 42  -21.0814 26061.2 -03492.1 -07.6319 26294.2
 14 10 2013  13 43  -21.0803 26061.5 -03492.2 -07.6320 26294.4
 14 10 2013  13 44  -21.0773 26062.7 -03492.7 -07.6328 26295.7
 14 10 2013  13 45  -21.0739 26063.0 -03493.1 -07.6336 26296.1
 14 10 2013  13 46  -21.0733 26064.0 -03493.7 -07.6347 26297.1
 14 10 2013  13 47  -21.0744 26066.2 -03494.7 -07.6360 26299.4
 14 10 2013  13 48  -21.0743 26066.5 -03494.5 -07.6356 26299.7
 14 10 2013  13 49  -21.0724 26064.9 -03493.6 -07.6341 26298.0
 14 10 2013  13 50  -21.0707 26062.5 -03492.7 -07.6329 26295.4
 14 10 2013  13 51  -21.0692 26060.0 -03492.1 -07.6322 26292.9
 14 10 2013  13 52  -21.0708 26060.9 -03493.1 -07.6342 26293.9
 14 10 2013  13 53  -21.0729 26059.1 -03493.0 -07.6344 26292.2
 14 10 2013  13 54  -21.0722 26056.8 -03492.3 -07.6336 26289.8
 14 10 2013  13 55  -21.0730 26056.9 -03492.9 -07.6350 26289.9
 14 10 2013  13 56  -21.0755 26056.6 -03493.6 -07.6364 26289.8
 14 10 2013  13 57  -21.0771 26056.5 -03494.0 -07.6373 26289.7
 14 10 2013  13 58  -21.0794 26057.9 -03494.9 -07.6389 26291.2
 14 10 2013  13 59  -21.0815 26058.9 -03495.2 -07.6393 26292.2
 14 10 2013  14 00  -21.0831 26060.7 -03495.7 -07.6399 26294.1
 14 10 2013  14 01  -21.0835 26061.4 -03495.6 -07.6394 26294.8
 14 10 2013  14 02  -21.0830 26063.5 -03496.0 -07.6398 26296.9
 14 10 2013  14 03  -21.0835 26066.2 -03496.6 -07.6401 26299.6
 14 10 2013  14 04  -21.0839 26068.1 -03496.6 -07.6397 26301.5
 14 10 2013  14 05  -21.0849 26069.8 -03496.5 -07.6389 26303.2
 14 10 2013  14 06  -21.0860 26070.8 -03495.9 -07.6373 26304.1
 14 10 2013  14 07  -21.0849 26069.0 -03494.3 -07.6343 26302.2
 14 10 2013  14 08  -21.0828 26067.3 -03493.0 -07.6322 26300.3
 14 10 2013  14 09  -21.0823 26067.0 -03492.8 -07.6318 26300.0
 14 10 2013  14 10  -21.0824 26069.5 -03493.7 -07.6331 26302.6
 14 10 2013  14 11  -21.0826 26071.3 -03494.0 -07.6332 26304.3
 14 10 2013  14 12  -21.0824 26070.8 -03493.3 -07.6317 26303.8
 14 10 2013  14 13  -21.0813 26069.4 -03492.3 -07.6299 26302.2
 14 10 2013  14 14  -21.0810 26067.9 -03491.5 -07.6287 26300.7
 14 10 2013  14 15  -21.0817 26066.9 -03491.3 -07.6284 26299.7
 14 10 2013  14 16  -21.0818 26066.1 -03491.0 -07.6282 26298.8
 14 10 2013  14 17  -21.0822 26065.5 -03490.9 -07.6282 26298.2
 14 10 2013  14 18  -21.0824 26064.9 -03490.8 -07.6281 26297.6
 14 10 2013  14 19  -21.0816 26064.1 -03490.6 -07.6279 26296.8
 14 10 2013  14 20  -21.0813 26063.4 -03490.5 -07.6279 26296.1
 14 10 2013  14 21  -21.0821 26063.1 -03490.6 -07.6282 26295.8
 14 10 2013  14 22  -21.0818 26062.2 -03490.4 -07.6280 26294.9
 14 10 2013  14 23  -21.0825 26061.8 -03490.4 -07.6281 26294.5
 14 10 2013  14 24  -21.0837 26062.7 -03490.9 -07.6289 26295.4
 14 10 2013  14 25  -21.0844 26062.8 -03490.8 -07.6287 26295.5
 14 10 2013  14 26  -21.0847 26063.9 -03491.2 -07.6292 26296.7
 14 10 2013  14 27  -21.0839 26064.3 -03491.2 -07.6291 26297.1
 14 10 2013  14 28  -21.0831 26063.9 -03490.9 -07.6285 26296.7
 14 10 2013  14 29  -21.0830 26062.7 -03490.4 -07.6278 26295.4
 14 10 2013  14 30  -21.0831 26060.4 -03489.6 -07.6267 26293.0
 14 10 2013  14 31  -21.0832 26059.9 -03489.5 -07.6268 26292.5
 14 10 2013  14 32  -21.0832 26059.6 -03489.7 -07.6273 26292.3
 14 10 2013  14 33  -21.0835 26058.9 -03489.7 -07.6275 26291.5
 14 10 2013  14 34  -21.0841 26058.2 -03489.8 -07.6279 26290.8
 14 10 2013  14 35  -21.0845 26057.1 -03489.8 -07.6281 26289.8
 14 10 2013  14 36  -21.0855 26056.1 -03489.9 -07.6286 26288.8
 14 10 2013  14 37  -21.0859 26056.0 -03490.3 -07.6296 26288.7
 14 10 2013  14 38  -21.0853 26055.2 -03490.4 -07.6300 26287.9
 14 10 2013  14 39  -21.0859 26054.9 -03490.8 -07.6308 26287.7
 14 10 2013  14 40  -21.0866 26055.0 -03491.1 -07.6316 26287.8
 14 10 2013  14 41  -21.0859 26054.1 -03490.8 -07.6312 26287.0
 14 10 2013  14 42  -21.0885 26055.5 -03491.7 -07.6327 26288.5
 14 10 2013  14 43  -21.0897 26054.2 -03491.2 -07.6320 26287.1
 14 10 2013  14 44  -21.0883 26052.3 -03490.3 -07.6306 26285.0
 14 10 2013  14 45  -21.0869 26051.2 -03490.2 -07.6308 26283.9
 14 10 2013  14 46  -21.0861 26050.6 -03490.5 -07.6316 26283.4
 14 10 2013  14 47  -21.0862 26050.6 -03490.9 -07.6325 26283.5
 14 10 2013  14 48  -21.0870 26050.6 -03491.2 -07.6331 26283.5
 14 10 2013  14 49  -21.0872 26050.5 -03491.2 -07.6331 26283.4
 14 10 2013  14 50  -21.0863 26051.5 -03491.5 -07.6335 26284.4
 14 10 2013  14 51  -21.0858 26052.7 -03491.9 -07.6340 26285.7
 14 10 2013  14 52  -21.0849 26052.5 -03491.6 -07.6335 26285.4
 14 10 2013  14 53  -21.0853 26052.8 -03491.6 -07.6333 26285.7
 14 10 2013  14 54  -21.0851 26053.5 -03491.6 -07.6331 26286.4
 14 10 2013  14 55  -21.0842 26053.7 -03491.3 -07.6324 26286.6
 14 10 2013  14 56  -21.0833 26053.8 -03491.1 -07.6318 26286.7
 14 10 2013  14 57  -21.0832 26053.4 -03490.6 -07.6310 26286.2
 14 10 2013  14 58  -21.0825 26052.5 -03490.1 -07.6300 26285.2
 14 10 2013  14 59  -21.0818 26051.8 -03489.6 -07.6292 26284.5
 14 10 2013  15 00  -21.0812 26052.4 -03489.8 -07.6295 26285.0
 14 10 2013  15 01  -21.0815 26053.0 -03490.1 -07.6299 26285.8
 14 10 2013  15 02  -21.0806 26053.6 -03490.1 -07.6297 26286.4
 14 10 2013  15 03  -21.0798 26054.1 -03489.9 -07.6293 26286.8
 14 10 2013  15 04  -21.0798 26054.9 -03489.9 -07.6291 26287.6
 14 10 2013  15 05  -21.0801 26056.2 -03490.1 -07.6290 26288.9
 14 10 2013  15 06  -21.0798 26057.2 -03489.9 -07.6284 26289.9
 14 10 2013  15 07  -21.0794 26057.6 -03489.6 -07.6275 26290.2
 14 10 2013  15 08  -21.0788 26057.4 -03489.0 -07.6264 26289.9
 14 10 2013  15 09  -21.0790 26058.2 -03489.0 -07.6260 26290.7
 14 10 2013  15 10  -21.0786 26059.1 -03488.9 -07.6256 26291.6
 14 10 2013  15 11  -21.0778 26059.0 -03488.3 -07.6243 26291.4
 14 10 2013  15 12  -21.0773 26058.8 -03487.8 -07.6233 26291.2
 14 10 2013  15 13  -21.0752 26058.1 -03487.1 -07.6220 26290.4
 14 10 2013  15 14  -21.0731 26057.2 -03486.5 -07.6209 26289.4
 14 10 2013  15 15  -21.0731 26056.9 -03486.3 -07.6207 26289.1
 14 10 2013  15 16  -21.0737 26057.4 -03486.5 -07.6209 26289.6
 14 10 2013  15 17  -21.0738 26057.6 -03486.4 -07.6206 26289.8
 14 10 2013  15 18  -21.0729 26056.6 -03485.7 -07.6195 26288.7
 14 10 2013  15 19  -21.0720 26055.7 -03485.3 -07.6188 26287.8
 14 10 2013  15 20  -21.0715 26055.6 -03485.3 -07.6188 26287.7
 14 10 2013  15 21  -21.0705 26055.4 -03485.1 -07.6185 26287.5
 14 10 2013  15 22  -21.0698 26054.9 -03484.9 -07.6181 26286.9
 14 10 2013  15 23  -21.0692 26053.9 -03484.4 -07.6174 26285.9
 14 10 2013  15 24  -21.0688 26052.7 -03484.0 -07.6169 26284.7
 14 10 2013  15 25  -21.0689 26051.9 -03483.7 -07.6166 26283.8
 14 10 2013  15 26  -21.0688 26050.5 -03483.2 -07.6159 26282.4
 14 10 2013  15 27  -21.0675 26050.6 -03483.3 -07.6161 26282.5
 14 10 2013  15 28  -21.0664 26050.2 -03483.2 -07.6160 26282.0
 14 10 2013  15 29  -21.0660 26050.0 -03483.2 -07.6160 26281.8
 14 10 2013  15 30  -21.0662 26049.5 -03483.1 -07.6159 26281.4
 14 10 2013  15 31  -21.0654 26048.7 -03482.8 -07.6154 26280.5
 14 10 2013  15 32  -21.0655 26048.5 -03482.8 -07.6155 26280.3
 14 10 2013  15 33  -21.0656 26048.2 -03482.8 -07.6155 26280.0
 14 10 2013  15 34  -21.0650 26047.0 -03482.3 -07.6148 26278.7
 14 10 2013  15 35  -21.0651 26046.4 -03482.1 -07.6146 26278.1
 14 10 2013  15 36  -21.0652 26047.0 -03482.5 -07.6153 26278.7
 14 10 2013  15 37  -21.0651 26047.0 -03482.6 -07.6154 26278.8
 14 10 2013  15 38  -21.0648 26046.8 -03482.5 -07.6154 26278.6
 14 10 2013  15 39  -21.0645 26045.9 -03482.2 -07.6149 26277.6
 14 10 2013  15 40  -21.0645 26045.8 -03482.3 -07.6152 26277.5
 14 10 2013  15 41  -21.0648 26045.7 -03482.4 -07.6155 26277.5
 14 10 2013  15 42  -21.0650 26045.1 -03482.3 -07.6154 26276.9
 14 10 2013  15 43  -21.0645 26044.8 -03482.3 -07.6155 26276.5
 14 10 2013  15 44  -21.0639 26045.1 -03482.7 -07.6162 26277.0
 14 10 2013  15 45  -21.0637 26045.0 -03482.8 -07.6165 26276.8
 14 10 2013  15 46  -21.0634 26044.8 -03482.9 -07.6168 26276.7
 14 10 2013  15 47  -21.0623 26044.6 -03482.9 -07.6168 26276.4
 14 10 2013  15 48  -21.0626 26044.8 -03483.1 -07.6172 26276.6
 14 10 2013  15 49  -21.0640 26045.4 -03483.4 -07.6178 26277.3
 14 10 2013  15 50  -21.0636 26044.7 -03482.9 -07.6168 26276.6
 14 10 2013  15 51  -21.0634 26044.5 -03482.6 -07.6162 26276.4
 14 10 2013  15 52  -21.0638 26044.7 -03482.5 -07.6159 26276.5
 14 10 2013  15 53  -21.0634 26045.0 -03482.3 -07.6155 26276.7
 14 10 2013  15 54  -21.0643 26045.5 -03482.3 -07.6153 26277.2
 14 10 2013  15 55  -21.0649 26045.3 -03481.9 -07.6144 26277.0
 14 10 2013  15 56  -21.0644 26044.8 -03481.4 -07.6136 26276.5
 14 10 2013  15 57  -21.0627 26044.0 -03480.9 -07.6127 26275.6
 14 10 2013  15 58  -21.0615 26044.2 -03481.0 -07.6128 26275.8
 14 10 2013  15 59  -21.0616 26045.9 -03481.7 -07.6139 26277.6
 14 10 2013  16 00  -21.0630 26046.9 -03482.0 -07.6142 26278.6
 14 10 2013  16 01  -21.0640 26046.5 -03481.4 -07.6131 26278.1
 14 10 2013  16 02  -21.0645 26046.4 -03481.0 -07.6122 26278.0
 14 10 2013  16 03  -21.0650 26046.5 -03480.7 -07.6115 26278.0
 14 10 2013  16 04  -21.0657 26046.6 -03480.5 -07.6110 26278.1
 14 10 2013  16 05  -21.0660 26046.7 -03480.2 -07.6105 26278.2
 14 10 2013  16 06  -21.0647 26047.1 -03480.1 -07.6100 26278.6
 14 10 2013  16 07  -21.0637 26047.6 -03479.9 -07.6096 26279.0
 14 10 2013  16 08  -21.0639 26048.8 -03480.2 -07.6099 26280.2
 14 10 2013  16 09  -21.0644 26049.8 -03480.4 -07.6100 26281.3
 14 10 2013  16 10  -21.0644 26050.5 -03480.4 -07.6097 26282.0
 14 10 2013  16 11  -21.0638 26049.9 -03479.7 -07.6084 26281.2
 14 10 2013  16 12  -21.0629 26049.0 -03479.1 -07.6075 26280.4
 14 10 2013  16 13  -21.0624 26049.2 -03479.2 -07.6075 26280.5
 14 10 2013  16 14  -21.0627 26049.8 -03479.5 -07.6079 26281.2
 14 10 2013  16 15  -21.0636 26050.0 -03479.5 -07.6080 26281.4
 14 10 2013  16 16  -21.0638 26049.9 -03479.3 -07.6075 26281.2
 14 10 2013  16 17  -21.0634 26049.6 -03479.0 -07.6069 26280.9
 14 10 2013  16 18  -21.0627 26049.4 -03478.7 -07.6065 26280.7
 14 10 2013  16 19  -21.0624 26049.4 -03478.7 -07.6063 26280.7
 14 10 2013  16 20  -21.0620 26049.6 -03478.7 -07.6063 26280.8
 14 10 2013  16 21  -21.0610 26049.6 -03478.6 -07.6062 26280.8
 14 10 2013  16 22  -21.0602 26049.4 -03478.5 -07.6059 26280.6
 14 10 2013  16 23  -21.0608 26049.5 -03478.6 -07.6061 26280.7
 14 10 2013  16 24  -21.0617 26049.9 -03478.7 -07.6063 26281.2
 14 10 2013  16 25  -21.0631 26050.5 -03478.9 -07.6065 26281.7
 14 10 2013  16 26  -21.0638 26050.2 -03478.7 -07.6061 26281.4
 14 10 2013  16 27  -21.0626 26049.3 -03478.2 -07.6053 26280.5
 14 10 2013  16 28  -21.0619 26049.4 -03478.1 -07.6052 26280.6
 14 10 2013  16 29  -21.0628 26049.3 -03478.1 -07.6052 26280.4
 14 10 2013  16 30  -21.0635 26048.7 -03477.9 -07.6049 26279.9
 14 10 2013  16 31  -21.0644 26049.3 -03478.1 -07.6051 26280.5
 14 10 2013  16 32  -21.0646 26049.4 -03477.9 -07.6046 26280.6
 14 10 2013  16 33  -21.0638 26048.7 -03477.4 -07.6037 26279.8
 14 10 2013  16 34  -21.0640 26048.4 -03477.2 -07.6035 26279.4
 14 10 2013  16 35  -21.0648 26048.9 -03477.4 -07.6038 26280.0
 14 10 2013  16 36  -21.0655 26049.5 -03477.5 -07.6038 26280.6
 14 10 2013  16 37  -21.0660 26049.9 -03477.4 -07.6035 26281.0
 14 10 2013  16 38  -21.0675 26049.9 -03477.0 -07.6026 26280.9
 14 10 2013  16 39  -21.0676 26049.7 -03476.6 -07.6017 26280.7
 14 10 2013  16 40  -21.0666 26050.2 -03476.5 -07.6014 26281.1
 14 10 2013  16 41  -21.0662 26050.7 -03476.4 -07.6010 26281.6
 14 10 2013  16 42  -21.0664 26050.7 -03476.1 -07.6004 26281.6
 14 10 2013  16 43  -21.0668 26050.9 -03475.9 -07.5999 26281.8
 14 10 2013  16 44  -21.0667 26051.5 -03475.8 -07.5995 26282.3
 14 10 2013  16 45  -21.0667 26052.4 -03475.7 -07.5991 26283.2
 14 10 2013  16 46  -21.0666 26052.5 -03475.4 -07.5983 26283.3
 14 10 2013  16 47  -21.0657 26051.8 -03474.7 -07.5970 26282.5
 14 10 2013  16 48  -21.0655 26052.2 -03474.6 -07.5968 26282.9
 14 10 2013  16 49  -21.0655 26052.9 -03474.6 -07.5964 26283.5
 14 10 2013  16 50  -21.0661 26052.8 -03474.2 -07.5957 26283.5
 14 10 2013  16 51  -21.0663 26052.6 -03473.6 -07.5945 26283.1
 14 10 2013  16 52  -21.0662 26052.2 -03473.1 -07.5935 26282.6
 14 10 2013  16 53  -21.0653 26050.9 -03472.4 -07.5923 26281.3
 14 10 2013  16 54  -21.0653 26050.8 -03472.3 -07.5921 26281.2
 14 10 2013  16 55  -21.0654 26050.1 -03471.9 -07.5914 26280.4
 14 10 2013  16 56  -21.0642 26049.1 -03471.3 -07.5905 26279.4
 14 10 2013  16 57  -21.0633 26048.7 -03471.1 -07.5901 26279.0
 14 10 2013  16 58  -21.0629 26048.8 -03471.0 -07.5900 26279.0
 14 10 2013  16 59  -21.0623 26048.4 -03470.9 -07.5898 26278.7
 14 10 2013  17 00  -21.0621 26048.8 -03471.0 -07.5900 26279.0
 14 10 2013  17 01  -21.0624 26048.9 -03471.0 -07.5899 26279.1
 14 10 2013  17 02  -21.0622 26048.3 -03470.6 -07.5891 26278.5
 14 10 2013  17 03  -21.0622 26047.9 -03470.3 -07.5887 26278.1
 14 10 2013  17 04  -21.0618 26048.2 -03470.2 -07.5885 26278.3
 14 10 2013  17 05  -21.0618 26048.2 -03470.1 -07.5881 26278.3
 14 10 2013  17 06  -21.0616 26047.9 -03469.8 -07.5875 26278.0
 14 10 2013  17 07  -21.0614 26047.8 -03469.6 -07.5871 26277.9
 14 10 2013  17 08  -21.0614 26047.9 -03469.5 -07.5868 26278.0
 14 10 2013  17 09  -21.0614 26047.3 -03469.0 -07.5861 26277.3
 14 10 2013  17 10  -21.0611 26046.0 -03468.4 -07.5851 26275.9
 14 10 2013  17 11  -21.0611 26045.2 -03468.0 -07.5844 26275.1
 14 10 2013  17 12  -21.0621 26045.7 -03468.3 -07.5849 26275.6
 14 10 2013  17 13  -21.0623 26044.6 -03467.7 -07.5840 26274.4
 14 10 2013  17 14  -21.0618 26043.6 -03467.1 -07.5830 26273.3
 14 10 2013  17 15  -21.0619 26042.8 -03466.9 -07.5827 26272.6
 14 10 2013  17 16  -21.0625 26042.7 -03466.8 -07.5827 26272.4
 14 10 2013  17 17  -21.0634 26043.2 -03466.8 -07.5826 26272.9
 14 10 2013  17 18  -21.0627 26042.2 -03466.2 -07.5814 26271.9
 14 10 2013  17 19  -21.0616 26041.5 -03465.9 -07.5810 26271.2
 14 10 2013  17 20  -21.0610 26041.8 -03466.0 -07.5811 26271.4
 14 10 2013  17 21  -21.0604 26041.4 -03465.8 -07.5808 26271.1
 14 10 2013  17 22  -21.0593 26041.0 -03465.6 -07.5805 26270.6
 14 10 2013  17 23  -21.0601 26041.3 -03465.8 -07.5808 26270.9
 14 10 2013  17 24  -21.0594 26041.1 -03465.7 -07.5808 26270.7
 14 10 2013  17 25  -21.0591 26040.8 -03465.7 -07.5808 26270.5
 14 10 2013  17 26  -21.0592 26039.8 -03465.4 -07.5804 26269.4
 14 10 2013  17 27  -21.0591 26038.5 -03465.1 -07.5801 26268.1
 14 10 2013  17 28  -21.0586 26035.9 -03464.2 -07.5789 26265.4
 14 10 2013  17 29  -21.0577 26033.3 -03463.5 -07.5782 26262.7
 14 10 2013  17 30  -21.0581 26032.0 -03463.9 -07.5794 26261.4
 14 10 2013  17 31  -21.0587 26031.8 -03464.5 -07.5807 26261.3
 14 10 2013  17 32  -21.0594 26032.4 -03465.3 -07.5823 26262.0
 14 10 2013  17 33  -21.0607 26032.9 -03465.8 -07.5833 26262.6
 14 10 2013  17 34  -21.0609 26032.6 -03465.8 -07.5834 26262.3
 14 10 2013  17 35  -21.0609 26031.7 -03465.7 -07.5834 26261.4
 14 10 2013  17 36  -21.0617 26031.6 -03466.0 -07.5840 26261.3
 14 10 2013  17 37  -21.0624 26032.3 -03466.4 -07.5848 26262.1
 14 10 2013  17 38  -21.0630 26033.4 -03466.8 -07.5853 26263.2
 14 10 2013  17 39  -21.0630 26033.6 -03466.7 -07.5850 26263.4
 14 10 2013  17 40  -21.0615 26033.4 -03466.4 -07.5845 26263.2
 14 10 2013  17 41  -21.0604 26032.6 -03466.0 -07.5838 26262.4
 14 10 2013  17 42  -21.0595 26032.5 -03466.0 -07.5838 26262.2
 14 10 2013  17 43  -21.0581 26033.5 -03466.3 -07.5841 26263.2
 14 10 2013  17 44  -21.0566 26034.6 -03466.7 -07.5846 26264.4
 14 10 2013  17 45  -21.0553 26034.4 -03466.5 -07.5845 26264.1
 14 10 2013  17 46  -21.0548 26033.4 -03466.2 -07.5839 26263.1
 14 10 2013  17 47  -21.0540 26032.8 -03465.9 -07.5835 26262.5
 14 10 2013  17 48  -21.0532 26032.5 -03465.8 -07.5835 26262.2
 14 10 2013  17 49  -21.0511 26031.0 -03465.5 -07.5831 26260.7
 14 10 2013  17 50  -21.0498 26030.2 -03465.4 -07.5833 26259.9
 14 10 2013  17 51  -21.0483 26030.6 -03465.9 -07.5841 26260.3
 14 10 2013  17 52  -21.0472 26029.7 -03465.6 -07.5838 26259.4
 14 10 2013  17 53  -21.0462 26029.7 -03465.9 -07.5845 26259.4
 14 10 2013  17 54  -21.0453 26028.7 -03465.8 -07.5845 26258.5
 14 10 2013  17 55  -21.0456 26027.6 -03465.5 -07.5841 26257.3
 14 10 2013  17 56  -21.0462 26028.0 -03465.7 -07.5844 26257.7
 14 10 2013  17 57  -21.0456 26028.4 -03465.8 -07.5846 26258.1
 14 10 2013  17 58  -21.0456 26028.4 -03465.8 -07.5846 26258.1
 14 10 2013  17 59  -21.0454 26028.8 -03465.8 -07.5846 26258.5
 14 10 2013  18 00  -21.0455 26029.5 -03466.0 -07.5847 26259.2
 14 10 2013  18 01  -21.0461 26030.1 -03466.1 -07.5847 26259.8
 14 10 2013  18 02  -21.0465 26030.3 -03465.9 -07.5843 26260.0
 14 10 2013  18 03  -21.0468 26029.9 -03465.6 -07.5837 26259.6
 14 10 2013  18 04  -21.0476 26029.2 -03465.2 -07.5831 26258.8
 14 10 2013  18 05  -21.0479 26028.7 -03464.9 -07.5826 26258.3
 14 10 2013  18 06  -21.0476 26027.9 -03464.6 -07.5821 26257.5
 14 10 2013  18 07  -21.0474 26027.4 -03464.4 -07.5817 26257.0
 14 10 2013  18 08  -21.0472 26026.9 -03464.3 -07.5818 26256.5
 14 10 2013  18 09  -21.0473 26026.0 -03464.1 -07.5815 26255.6
 14 10 2013  18 10  -21.0475 26026.2 -03464.3 -07.5820 26255.7
 14 10 2013  18 11  -21.0472 26026.2 -03464.5 -07.5824 26255.7
 14 10 2013  18 12  -21.0463 26025.1 -03464.2 -07.5821 26254.7
 14 10 2013  18 13  -21.0464 26024.6 -03464.3 -07.5824 26254.2
 14 10 2013  18 14  -21.0471 26024.4 -03464.6 -07.5831 26254.1
 14 10 2013  18 15  -21.0474 26023.7 -03464.6 -07.5834 26253.3
 14 10 2013  18 16  -21.0471 26023.5 -03464.8 -07.5839 26253.1
 14 10 2013  18 17  -21.0477 26023.2 -03465.1 -07.5845 26252.9
 14 10 2013  18 18  -21.0475 26022.6 -03465.2 -07.5849 26252.3
 14 10 2013  18 19  -21.0471 26022.5 -03465.5 -07.5856 26252.2
 14 10 2013  18 20  -21.0475 26022.5 -03465.8 -07.5864 26252.3
 14 10 2013  18 21  -21.0476 26022.4 -03466.1 -07.5870 26252.2
 14 10 2013  18 22  -21.0475 26021.9 -03466.2 -07.5873 26251.8
 14 10 2013  18 23  -21.0475 26021.7 -03466.5 -07.5880 26251.6
 14 10 2013  18 24  -21.0479 26021.4 -03466.7 -07.5885 26251.4
 14 10 2013  18 25  -21.0481 26021.1 -03466.8 -07.5889 26251.0
 14 10 2013  18 26  -21.0480 26020.9 -03467.1 -07.5895 26250.9
 14 10 2013  18 27  -21.0483 26020.6 -03467.3 -07.5900 26250.6
 14 10 2013  18 28  -21.0482 26019.9 -03467.3 -07.5902 26249.9
 14 10 2013  18 29  -21.0482 26019.7 -03467.5 -07.5907 26249.7
 14 10 2013  18 30  -21.0488 26019.4 -03467.6 -07.5911 26249.4
 14 10 2013  18 31  -21.0492 26019.1 -03467.8 -07.5915 26249.2
 14 10 2013  18 32  -21.0502 26018.8 -03468.0 -07.5920 26248.9
 14 10 2013  18 33  -21.0505 26018.1 -03467.9 -07.5921 26248.2
 14 10 2013  18 34  -21.0505 26017.1 -03467.7 -07.5919 26247.2
 14 10 2013  18 35  -21.0510 26016.8 -03467.8 -07.5922 26246.9
 14 10 2013  18 36  -21.0516 26016.2 -03467.8 -07.5924 26246.3
 14 10 2013  18 37  -21.0523 26015.7 -03467.9 -07.5928 26245.8
 14 10 2013  18 38  -21.0532 26015.6 -03468.1 -07.5933 26245.7
 14 10 2013  18 39  -21.0543 26015.5 -03468.2 -07.5934 26245.6
 14 10 2013  18 40  -21.0554 26015.5 -03468.3 -07.5937 26245.7
 14 10 2013  18 41  -21.0553 26014.7 -03468.1 -07.5935 26244.9
 14 10 2013  18 42  -21.0559 26014.5 -03468.1 -07.5936 26244.6
 14 10 2013  18 43  -21.0560 26014.2 -03468.2 -07.5939 26244.4
 14 10 2013  18 44  -21.0559 26013.4 -03468.1 -07.5938 26243.6
 14 10 2013  18 45  -21.0564 26012.6 -03468.0 -07.5938 26242.7
 14 10 2013  18 46  -21.0568 26012.0 -03468.0 -07.5941 26242.2
 14 10 2013  18 47  -21.0568 26011.4 -03468.0 -07.5942 26241.6
 14 10 2013  18 48  -21.0565 26010.9 -03468.0 -07.5944 26241.1
 14 10 2013  18 49  -21.0566 26010.4 -03468.1 -07.5947 26240.6
 14 10 2013  18 50  -21.0567 26010.1 -03468.2 -07.5951 26240.3
 14 10 2013  18 51  -21.0571 26009.6 -03468.3 -07.5955 26239.9
 14 10 2013  18 52  -21.0575 26009.1 -03468.4 -07.5957 26239.3
 14 10 2013  18 53  -21.0572 26008.4 -03468.3 -07.5957 26238.6
 14 10 2013  18 54  -21.0566 26007.5 -03468.2 -07.5958 26237.7
 14 10 2013  18 55  -21.0562 26006.4 -03468.1 -07.5958 26236.6
 14 10 2013  18 56  -21.0552 26005.4 -03468.0 -07.5960 26235.7
 14 10 2013  18 57  -21.0546 26004.4 -03468.1 -07.5963 26234.7
 14 10 2013  18 58  -21.0548 26003.7 -03468.2 -07.5969 26234.0
 14 10 2013  18 59  -21.0548 26002.9 -03468.3 -07.5972 26233.2
 14 10 2013  19 00  -21.0550 26002.2 -03468.4 -07.5977 26232.5
 14 10 2013  19 01  -21.0547 26001.3 -03468.4 -07.5981 26231.6
 14 10 2013  19 02  -21.0543 26000.2 -03468.4 -07.5983 26230.5
 14 10 2013  19 03  -21.0541 25999.7 -03468.7 -07.5991 26230.0
 14 10 2013  19 04  -21.0541 25998.7 -03468.8 -07.5996 26229.1
 14 10 2013  19 05  -21.0542 25997.9 -03469.0 -07.6002 26228.3
 14 10 2013  19 06  -21.0544 25997.5 -03469.3 -07.6010 26227.9
 14 10 2013  19 07  -21.0552 25997.2 -03469.5 -07.6017 26227.7
 14 10 2013  19 08  -21.0567 25996.8 -03469.9 -07.6025 26227.3
 14 10 2013  19 09  -21.0576 25996.4 -03470.2 -07.6032 26227.0
 14 10 2013  19 10  -21.0578 25996.6 -03470.6 -07.6041 26227.2
 14 10 2013  19 11  -21.0575 25996.1 -03470.7 -07.6045 26226.8
 14 10 2013  19 12  -21.0567 25995.7 -03470.8 -07.6049 26226.3
 14 10 2013  19 13  -21.0570 25994.7 -03470.8 -07.6052 26225.4
 14 10 2013  19 14  -21.0566 25993.9 -03471.0 -07.6057 26224.6
 14 10 2013  19 15  -21.0536 25993.2 -03471.0 -07.6060 26223.9
 14 10 2013  19 16  -21.0506 25993.0 -03471.5 -07.6071 26223.8
 14 10 2013  19 17  -21.0499 25992.8 -03472.0 -07.6082 26223.6
 14 10 2013  19 18  -21.0486 25992.5 -03472.3 -07.6091 26223.4
 14 10 2013  19 19  -21.0481 25992.2 -03472.8 -07.6101 26223.1
 14 10 2013  19 20  -21.0474 25991.8 -03473.0 -07.6108 26222.8
 14 10 2013  19 21  -21.0485 25992.0 -03473.6 -07.6119 26223.1
 14 10 2013  19 22  -21.0493 25991.9 -03473.8 -07.6125 26223.0
 14 10 2013  19 23  -21.0494 25990.9 -03473.6 -07.6122 26222.0
 14 10 2013  19 24  -21.0486 25990.0 -03473.3 -07.6118 26221.1
 14 10 2013  19 25  -21.0487 25989.9 -03473.6 -07.6125 26221.0
 14 10 2013  19 26  -21.0480 25990.0 -03474.0 -07.6134 26221.1
 14 10 2013  19 27  -21.0478 25989.8 -03474.3 -07.6140 26221.0
 14 10 2013  19 28  -21.0479 25989.4 -03474.4 -07.6144 26220.6
 14 10 2013  19 29  -21.0476 25988.9 -03474.4 -07.6147 26220.1
 14 10 2013  19 30  -21.0473 25988.3 -03474.5 -07.6150 26219.5
 14 10 2013  19 31  -21.0468 25987.9 -03474.6 -07.6153 26219.1
 14 10 2013  19 32  -21.0462 25987.5 -03474.7 -07.6157 26218.8
 14 10 2013  19 33  -21.0461 25987.1 -03474.9 -07.6162 26218.4
 14 10 2013  19 34  -21.0463 25987.1 -03475.2 -07.6169 26218.5
 14 10 2013  19 35  -21.0465 25987.1 -03475.5 -07.6176 26218.5
 14 10 2013  19 36  -21.0464 25986.9 -03475.8 -07.6181 26218.3
 14 10 2013  19 37  -21.0462 25986.3 -03475.8 -07.6183 26217.7
 14 10 2013  19 38  -21.0464 25985.7 -03475.9 -07.6187 26217.1
 14 10 2013  19 39  -21.0465 25985.3 -03476.0 -07.6191 26216.8
 14 10 2013  19 40  -21.0472 25985.1 -03476.3 -07.6197 26216.6
 14 10 2013  19 41  -21.0477 25984.9 -03476.6 -07.6204 26216.5
 14 10 2013  19 42  -21.0482 25984.9 -03476.8 -07.6210 26216.5
 14 10 2013  19 43  -21.0486 25984.9 -03477.1 -07.6216 26216.5
 14 10 2013  19 44  -21.0489 25984.8 -03477.3 -07.6221 26216.4
 14 10 2013  19 45  -21.0491 25984.4 -03477.5 -07.6225 26216.1
 14 10 2013  19 46  -21.0492 25984.1 -03477.6 -07.6229 26215.8
 14 10 2013  19 47  -21.0492 25983.8 -03477.7 -07.6233 26215.5
 14 10 2013  19 48  -21.0491 25983.2 -03477.8 -07.6236 26215.0
 14 10 2013  19 49  -21.0490 25982.8 -03477.9 -07.6240 26214.5
 14 10 2013  19 50  -21.0489 25982.6 -03478.1 -07.6245 26214.3
 14 10 2013  19 51  -21.0489 25982.3 -03478.3 -07.6250 26214.1
 14 10 2013  19 52  -21.0491 25982.2 -03478.6 -07.6256 26214.0
 14 10 2013  19 53  -21.0492 25982.1 -03478.9 -07.6262 26214.0
 14 10 2013  19 54  -21.0487 25982.0 -03479.1 -07.6267 26213.9
 14 10 2013  19 55  -21.0483 25981.8 -03479.3 -07.6272 26213.7
 14 10 2013  19 56  -21.0481 25981.6 -03479.5 -07.6277 26213.6
 14 10 2013  19 57  -21.0478 25981.4 -03479.6 -07.6281 26213.3
 14 10 2013  19 58  -21.0472 25981.2 -03479.8 -07.6285 26213.2
 14 10 2013  19 59  -21.0469 25980.9 -03480.0 -07.6290 26213.0
 14 10 2013  20 00  -21.0467 25980.7 -03480.2 -07.6295 26212.7
 14 10 2013  20 01  -21.0464 25980.4 -03480.3 -07.6297 26212.4
 14 10 2013  20 02  -21.0464 25979.8 -03480.3 -07.6300 26211.9
 14 10 2013  20 03  -21.0462 25979.3 -03480.4 -07.6303 26211.4
 14 10 2013  20 04  -21.0461 25979.0 -03480.5 -07.6307 26211.1
 14 10 2013  20 05  -21.0461 25978.5 -03480.6 -07.6309 26210.6
 14 10 2013  20 06  -21.0461 25978.2 -03480.6 -07.6312 26210.4
 14 10 2013  20 07  -21.0460 25978.1 -03480.8 -07.6315 26210.2
 14 10 2013  20 08  -21.0459 25978.2 -03481.1 -07.6321 26210.3
 14 10 2013  20 09  -21.0457 25978.0 -03481.2 -07.6325 26210.2
 14 10 2013  20 10  -21.0460 25978.0 -03481.5 -07.6330 26210.3
 14 10 2013  20 11  -21.0465 25977.8 -03481.6 -07.6334 26210.1
 14 10 2013  20 12  -21.0472 25977.5 -03481.7 -07.6337 26209.8
 14 10 2013  20 13  -21.0480 25977.2 -03481.7 -07.6338 26209.5
 14 10 2013  20 14  -21.0485 25976.9 -03481.7 -07.6340 26209.2
 14 10 2013  20 15  -21.0489 25976.5 -03481.8 -07.6341 26208.8
 14 10 2013  20 16  -21.0493 25976.3 -03481.9 -07.6345 26208.7
 14 10 2013  20 17  -21.0497 25976.2 -03482.0 -07.6348 26208.5
 14 10 2013  20 18  -21.0501 25975.9 -03482.1 -07.6349 26208.2
 14 10 2013  20 19  -21.0510 25975.7 -03482.1 -07.6350 26208.0
 14 10 2013  20 20  -21.0517 25975.6 -03482.2 -07.6354 26208.0
 14 10 2013  20 21  -21.0518 25975.7 -03482.5 -07.6360 26208.1
 14 10 2013  20 22  -21.0508 25976.3 -03482.9 -07.6367 26208.7
 14 10 2013  20 23  -21.0503 25976.8 -03483.4 -07.6377 26209.3
 14 10 2013  20 24  -21.0503 25977.1 -03483.8 -07.6383 26209.7
 14 10 2013  20 25  -21.0497 25976.9 -03484.0 -07.6387 26209.5
 14 10 2013  20 26  -21.0494 25976.7 -03484.1 -07.6391 26209.3
 14 10 2013  20 27  -21.0492 25976.5 -03484.2 -07.6394 26209.1
 14 10 2013  20 28  -21.0489 25976.6 -03484.3 -07.6397 26209.2
 14 10 2013  20 29  -21.0488 25976.6 -03484.5 -07.6401 26209.3
 14 10 2013  20 30  -21.0490 25976.5 -03484.6 -07.6402 26209.2
 14 10 2013  20 31  -21.0494 25976.7 -03484.8 -07.6406 26209.4
 14 10 2013  20 32  -21.0493 25976.8 -03484.9 -07.6409 26209.5
 14 10 2013  20 33  -21.0497 25976.8 -03485.1 -07.6412 26209.6
 14 10 2013  20 34  -21.0508 25976.7 -03485.1 -07.6414 26209.4
 14 10 2013  20 35  -21.0527 25976.0 -03484.9 -07.6411 26208.8
 14 10 2013  20 36  -21.0541 25975.3 -03484.6 -07.6406 26208.0
 14 10 2013  20 37  -21.0554 25974.5 -03484.3 -07.6401 26207.2
 14 10 2013  20 38  -21.0566 25974.2 -03484.1 -07.6399 26206.8
 14 10 2013  20 39  -21.0573 25974.1 -03484.1 -07.6400 26206.8
 14 10 2013  20 40  -21.0579 25973.9 -03484.1 -07.6399 26206.6
 14 10 2013  20 41  -21.0582 25973.8 -03484.0 -07.6398 26206.4
 14 10 2013  20 42  -21.0581 25973.7 -03484.0 -07.6397 26206.3
 14 10 2013  20 43  -21.0582 25973.3 -03483.8 -07.6395 26205.9
 14 10 2013  20 44  -21.0582 25972.8 -03483.7 -07.6394 26205.4
 14 10 2013  20 45  -21.0581 25972.8 -03483.8 -07.6396 26205.4
 14 10 2013  20 46  -21.0580 25972.6 -03483.8 -07.6397 26205.2
 14 10 2013  20 47  -21.0577 25972.1 -03483.7 -07.6397 26204.7
 14 10 2013  20 48  -21.0574 25972.1 -03483.8 -07.6399 26204.7
 14 10 2013  20 49  -21.0571 25972.1 -03484.0 -07.6402 26204.7
 14 10 2013  20 50  -21.0571 25971.7 -03484.0 -07.6404 26204.4
 14 10 2013  20 51  -21.0574 25971.1 -03483.9 -07.6403 26203.7
 14 10 2013  20 52  -21.0574 25970.5 -03483.8 -07.6402 26203.1
 14 10 2013  20 53  -21.0571 25970.9 -03484.1 -07.6408 26203.5
 14 10 2013  20 54  -21.0568 25971.2 -03484.4 -07.6414 26203.9
 14 10 2013  20 55  -21.0566 25971.6 -03484.9 -07.6422 26204.4
 14 10 2013  20 56  -21.0569 25970.6 -03484.6 -07.6419 26203.4
 14 10 2013  20 57  -21.0563 25970.4 -03484.5 -07.6419 26203.2
 14 10 2013  20 58  -21.0553 25970.5 -03484.7 -07.6423 26203.2
 14 10 2013  20 59  -21.0547 25970.6 -03485.0 -07.6429 26203.4
 14 10 2013  21 00  -21.0543 25970.6 -03485.3 -07.6435 26203.4
 14 10 2013  21 01  -21.0537 25970.4 -03485.4 -07.6438 26203.2
 14 10 2013  21 02  -21.0531 25969.7 -03485.3 -07.6438 26202.6
 14 10 2013  21 03  -21.0524 25969.0 -03485.1 -07.6436 26201.9
 14 10 2013  21 04  -21.0517 25968.6 -03485.1 -07.6436 26201.5
 14 10 2013  21 05  -21.0511 25968.7 -03485.3 -07.6441 26201.5
 14 10 2013  21 06  -21.0501 25968.8 -03485.5 -07.6445 26201.7
 14 10 2013  21 07  -21.0502 25967.9 -03485.4 -07.6445 26200.8
 14 10 2013  21 08  -21.0502 25967.2 -03485.1 -07.6441 26200.0
 14 10 2013  21 09  -21.0499 25966.9 -03484.9 -07.6437 26199.7
 14 10 2013  21 10  -21.0499 25966.8 -03485.3 -07.6445 26199.7
 14 10 2013  21 11  -21.0500 25966.9 -03485.5 -07.6451 26199.8
 14 10 2013  21 12  -21.0502 25966.9 -03485.7 -07.6455 26199.8
 14 10 2013  21 13  -21.0506 25966.8 -03485.8 -07.6458 26199.7
 14 10 2013  21 14  -21.0511 25966.7 -03486.0 -07.6461 26199.6
 14 10 2013  21 15  -21.0513 25966.5 -03486.0 -07.6462 26199.5
 14 10 2013  21 16  -21.0515 25966.9 -03486.3 -07.6467 26199.9
 14 10 2013  21 17  -21.0516 25967.3 -03486.6 -07.6473 26200.4
 14 10 2013  21 18  -21.0519 25968.0 -03487.0 -07.6480 26201.1
 14 10 2013  21 19  -21.0523 25968.6 -03487.5 -07.6489 26201.8
 14 10 2013  21 20  -21.0527 25969.2 -03487.9 -07.6495 26202.3
 14 10 2013  21 21  -21.0530 25969.6 -03488.2 -07.6500 26202.8
 14 10 2013  21 22  -21.0532 25970.1 -03488.4 -07.6503 26203.3
 14 10 2013  21 23  -21.0534 25970.5 -03488.7 -07.6509 26203.8
 14 10 2013  21 24  -21.0540 25970.8 -03488.9 -07.6512 26204.1
 14 10 2013  21 25  -21.0541 25970.9 -03488.9 -07.6513 26204.2
 14 10 2013  21 26  -21.0537 25971.3 -03489.1 -07.6516 26204.6
 14 10 2013  21 27  -21.0535 25971.4 -03489.1 -07.6515 26204.7
 14 10 2013  21 28  -21.0534 25971.1 -03489.0 -07.6513 26204.4
 14 10 2013  21 29  -21.0535 25970.9 -03488.9 -07.6511 26204.2
 14 10 2013  21 30  -21.0536 25970.7 -03488.7 -07.6509 26204.0
 14 10 2013  21 31  -21.0537 25970.2 -03488.5 -07.6505 26203.4
 14 10 2013  21 32  -21.0538 25969.9 -03488.3 -07.6502 26203.1
 14 10 2013  21 33  -21.0536 25969.6 -03488.2 -07.6500 26202.8
 14 10 2013  21 34  -21.0533 25969.4 -03488.1 -07.6499 26202.6
 14 10 2013  21 35  -21.0527 25969.6 -03488.2 -07.6501 26202.8
 14 10 2013  21 36  -21.0521 25969.6 -03488.3 -07.6503 26202.8
 14 10 2013  21 37  -21.0515 25969.6 -03488.3 -07.6504 26202.8
 14 10 2013  21 38  -21.0511 25969.4 -03488.4 -07.6505 26202.6
 14 10 2013  21 39  -21.0510 25969.2 -03488.3 -07.6505 26202.5
 14 10 2013  21 40  -21.0508 25969.1 -03488.3 -07.6503 26202.3
 14 10 2013  21 41  -21.0506 25968.8 -03488.2 -07.6503 26202.0
 14 10 2013  21 42  -21.0504 25968.4 -03488.1 -07.6502 26201.6
 14 10 2013  21 43  -21.0500 25968.2 -03488.1 -07.6502 26201.4
 14 10 2013  21 44  -21.0494 25968.2 -03488.2 -07.6504 26201.4
 14 10 2013  21 45  -21.0489 25968.1 -03488.2 -07.6505 26201.3
 14 10 2013  21 46  -21.0487 25968.2 -03488.4 -07.6508 26201.5
 14 10 2013  21 47  -21.0488 25968.5 -03488.6 -07.6514 26201.8
 14 10 2013  21 48  -21.0489 25968.8 -03488.9 -07.6519 26202.2
 14 10 2013  21 49  -21.0490 25969.5 -03489.4 -07.6527 26202.8
 14 10 2013  21 50  -21.0491 25969.9 -03489.7 -07.6532 26203.3
 14 10 2013  21 51  -21.0493 25970.4 -03490.0 -07.6537 26203.8
 14 10 2013  21 52  -21.0496 25970.8 -03490.2 -07.6542 26204.3
 14 10 2013  21 53  -21.0501 25971.4 -03490.6 -07.6547 26204.9
 14 10 2013  21 54  -21.0508 25972.0 -03490.9 -07.6553 26205.6
 14 10 2013  21 55  -21.0514 25972.6 -03491.2 -07.6557 26206.2
 14 10 2013  21 56  -21.0518 25973.0 -03491.4 -07.6559 26206.6
 14 10 2013  21 57  -21.0522 25973.5 -03491.6 -07.6562 26207.2
 14 10 2013  21 58  -21.0528 25974.1 -03491.8 -07.6565 26207.8
 14 10 2013  21 59  -21.0533 25974.5 -03491.9 -07.6567 26208.2
 14 10 2013  22 00  -21.0538 25974.9 -03492.0 -07.6567 26208.6
 14 10 2013  22 01  -21.0541 25975.3 -03492.1 -07.6568 26209.0
 14 10 2013  22 02  -21.0543 25975.5 -03492.1 -07.6568 26209.2
 14 10 2013  22 03  -21.0539 25975.5 -03492.0 -07.6566 26209.2
 14 10 2013  22 04  -21.0537 25975.7 -03491.9 -07.6564 26209.4
 14 10 2013  22 05  -21.0538 25975.9 -03491.9 -07.6564 26209.5
 14 10 2013  22 06  -21.0540 25976.1 -03492.0 -07.6563 26209.8
 14 10 2013  22 07  -21.0541 25976.4 -03492.0 -07.6564 26210.0
 14 10 2013  22 08  -21.0542 25976.5 -03492.1 -07.6565 26210.2
 14 10 2013  22 09  -21.0540 25976.4 -03492.0 -07.6563 26210.1
 14 10 2013  22 10  -21.0538 25976.4 -03491.9 -07.6561 26210.1
 14 10 2013  22 11  -21.0539 25976.4 -03491.8 -07.6559 26210.0
 14 10 2013  22 12  -21.0539 25976.4 -03491.8 -07.6559 26210.0
 14 10 2013  22 13  -21.0536 25976.4 -03491.7 -07.6557 26210.0
 14 10 2013  22 14  -21.0530 25976.2 -03491.6 -07.6555 26209.8
 14 10 2013  22 15  -21.0526 25976.0 -03491.5 -07.6554 26209.6
 14 10 2013  22 16  -21.0520 25976.1 -03491.5 -07.6553 26209.7
 14 10 2013  22 17  -21.0517 25976.1 -03491.5 -07.6554 26209.7
 14 10 2013  22 18  -21.0516 25975.8 -03491.4 -07.6553 26209.4
 14 10 2013  22 19  -21.0514 25975.7 -03491.4 -07.6551 26209.3
 14 10 2013  22 20  -21.0511 25975.8 -03491.4 -07.6552 26209.4
 14 10 2013  22 21  -21.0508 25975.7 -03491.4 -07.6552 26209.3
 14 10 2013  22 22  -21.0501 25975.5 -03491.3 -07.6551 26209.1
 14 10 2013  22 23  -21.0495 25975.3 -03491.2 -07.6550 26208.9
 14 10 2013  22 24  -21.0491 25975.0 -03491.2 -07.6549 26208.6
 14 10 2013  22 25  -21.0485 25975.1 -03491.2 -07.6549 26208.7
 14 10 2013  22 26  -21.0483 25975.1 -03491.3 -07.6551 26208.7
 14 10 2013  22 27  -21.0484 25975.4 -03491.5 -07.6556 26209.0
 14 10 2013  22 28  -21.0485 25975.6 -03491.7 -07.6560 26209.3
 14 10 2013  22 29  -21.0479 25975.8 -03491.8 -07.6560 26209.4
 14 10 2013  22 30  -21.0474 25976.2 -03492.1 -07.6566 26209.9
 14 10 2013  22 31  -21.0472 25976.4 -03492.2 -07.6568 26210.1
 14 10 2013  22 32  -21.0470 25976.6 -03492.3 -07.6570 26210.3
 14 10 2013  22 33  -21.0465 25977.0 -03492.5 -07.6573 26210.8
 14 10 2013  22 34  -21.0459 25977.4 -03492.7 -07.6576 26211.2
 14 10 2013  22 35  -21.0456 25977.8 -03492.9 -07.6579 26211.6
 14 10 2013  22 36  -21.0455 25978.1 -03493.1 -07.6583 26211.9
 14 10 2013  22 37  -21.0454 25978.7 -03493.4 -07.6586 26212.5
 14 10 2013  22 38  -21.0455 25979.4 -03493.7 -07.6591 26213.2
 14 10 2013  22 39  -21.0459 25979.7 -03493.8 -07.6594 26213.5
 14 10 2013  22 40  -21.0462 25980.2 -03494.0 -07.6596 26214.1
 14 10 2013  22 41  -21.0464 25980.9 -03494.3 -07.6600 26214.8
 14 10 2013  22 42  -21.0463 25981.6 -03494.5 -07.6603 26215.5
 14 10 2013  22 43  -21.0459 25982.0 -03494.6 -07.6604 26216.0
 14 10 2013  22 44  -21.0458 25982.4 -03494.7 -07.6605 26216.4
 14 10 2013  22 45  -21.0455 25982.9 -03494.8 -07.6604 26216.9
 14 10 2013  22 46  -21.0454 25983.3 -03494.9 -07.6607 26217.3
 14 10 2013  22 47  -21.0454 25983.5 -03494.9 -07.6605 26217.5
 14 10 2013  22 48  -21.0454 25983.6 -03494.8 -07.6604 26217.5
 14 10 2013  22 49  -21.0453 25983.6 -03494.7 -07.6602 26217.6
 14 10 2013  22 50  -21.0452 25983.8 -03494.7 -07.6601 26217.7
 14 10 2013  22 51  -21.0452 25984.2 -03494.8 -07.6601 26218.1
 14 10 2013  22 52  -21.0452 25984.6 -03495.0 -07.6604 26218.6
 14 10 2013  22 53  -21.0452 25984.9 -03495.1 -07.6605 26218.9
 14 10 2013  22 54  -21.0451 25984.8 -03494.9 -07.6603 26218.8
 14 10 2013  22 55  -21.0447 25984.9 -03494.8 -07.6600 26218.8
 14 10 2013  22 56  -21.0447 25984.6 -03494.7 -07.6597 26218.5
 14 10 2013  22 57  -21.0448 25984.5 -03494.5 -07.6594 26218.4
 14 10 2013  22 58  -21.0447 25984.1 -03494.3 -07.6591 26218.0
 14 10 2013  22 59  -21.0446 25983.9 -03494.1 -07.6587 26217.7
 14 10 2013  23 00  -21.0445 25983.4 -03493.9 -07.6583 26217.3
 14 10 2013  23 01  -21.0445 25982.9 -03493.6 -07.6579 26216.7
 14 10 2013  23 02  -21.0446 25982.1 -03493.2 -07.6572 26215.9
 14 10 2013  23 03  -21.0443 25981.4 -03492.9 -07.6567 26215.2
 14 10 2013  23 04  -21.0439 25980.6 -03492.4 -07.6560 26214.2
 14 10 2013  23 05  -21.0432 25979.8 -03492.1 -07.6555 26213.4
 14 10 2013  23 06  -21.0427 25979.0 -03491.7 -07.6550 26212.6
 14 10 2013  23 07  -21.0424 25978.6 -03491.7 -07.6549 26212.2
 14 10 2013  23 08  -21.0420 25978.4 -03491.7 -07.6550 26212.0
 14 10 2013  23 09  -21.0415 25977.9 -03491.6 -07.6550 26211.5
 14 10 2013  23 10  -21.0414 25977.4 -03491.5 -07.6549 26211.0
 14 10 2013  23 11  -21.0414 25977.1 -03491.4 -07.6549 26210.7
 14 10 2013  23 12  -21.0419 25976.8 -03491.5 -07.6551 26210.4
 14 10 2013  23 13  -21.0425 25976.6 -03491.5 -07.6552 26210.2
 14 10 2013  23 14  -21.0428 25976.4 -03491.5 -07.6552 26210.0
 14 10 2013  23 15  -21.0433 25976.0 -03491.4 -07.6552 26209.6
 14 10 2013  23 16  -21.0436 25975.7 -03491.4 -07.6553 26209.3
 14 10 2013  23 17  -21.0438 25975.6 -03491.4 -07.6552 26209.2
 14 10 2013  23 18  -21.0442 25975.7 -03491.5 -07.6555 26209.3
 14 10 2013  23 19  -21.0442 25976.1 -03491.8 -07.6560 26209.7
 14 10 2013  23 20  -21.0442 25976.5 -03492.1 -07.6564 26210.1
 14 10 2013  23 21  -21.0441 25976.7 -03492.3 -07.6569 26210.4
 14 10 2013  23 22  -21.0434 25976.7 -03492.3 -07.6568 26210.4
 14 10 2013  23 23  -21.0425 25976.6 -03492.3 -07.6568 26210.3
 14 10 2013  23 24  -21.0419 25976.4 -03492.2 -07.6568 26210.1
 14 10 2013  23 25  -21.0420 25975.7 -03492.0 -07.6565 26209.4
 14 10 2013  23 26  -21.0422 25975.0 -03491.7 -07.6560 26208.6
 14 10 2013  23 27  -21.0423 25974.5 -03491.5 -07.6557 26208.1
 14 10 2013  23 28  -21.0423 25974.2 -03491.4 -07.6557 26207.8
 14 10 2013  23 29  -21.0416 25974.2 -03491.4 -07.6557 26207.8
 14 10 2013  23 30  -21.0412 25974.5 -03491.7 -07.6562 26208.2
 14 10 2013  23 31  -21.0413 25975.1 -03492.1 -07.6570 26208.8
 14 10 2013  23 32  -21.0413 25975.5 -03492.5 -07.6576 26209.2
 14 10 2013  23 33  -21.0412 25976.0 -03492.8 -07.6583 26209.8
 14 10 2013  23 34  -21.0409 25976.3 -03493.0 -07.6586 26210.1
 14 10 2013  23 35  -21.0409 25976.5 -03493.2 -07.6589 26210.3
 14 10 2013  23 36  -21.0407 25976.3 -03493.1 -07.6588 26210.1
 14 10 2013  23 37  -21.0401 25976.4 -03493.1 -07.6587 26210.2
 14 10 2013  23 38  -21.0395 25976.9 -03493.4 -07.6593 26210.8
 14 10 2013  23 39  -21.0394 25976.8 -03493.5 -07.6594 26210.6
 14 10 2013  23 40  -21.0395 25976.5 -03493.4 -07.6593 26210.3
 14 10 2013  23 41  -21.0395 25976.2 -03493.2 -07.6591 26210.0
 14 10 2013  23 42  -21.0394 25975.7 -03493.0 -07.6588 26209.5
 14 10 2013  23 43  -21.0388 25975.3 -03492.8 -07.6584 26209.0
 14 10 2013  23 44  -21.0382 25974.8 -03492.6 -07.6580 26208.6
 14 10 2013  23 45  -21.0375 25974.7 -03492.5 -07.6580 26208.5
 14 10 2013  23 46  -21.0368 25974.5 -03492.5 -07.6581 26208.3
 14 10 2013  23 47  -21.0358 25974.5 -03492.6 -07.6582 26208.2
 14 10 2013  23 48  -21.0344 25974.3 -03492.6 -07.6582 26208.0
 14 10 2013  23 49  -21.0332 25973.9 -03492.5 -07.6581 26207.7
 14 10 2013  23 50  -21.0321 25973.6 -03492.4 -07.6580 26207.4
 14 10 2013  23 51  -21.0314 25973.3 -03492.3 -07.6580 26207.0
 14 10 2013  23 52  -21.0314 25973.0 -03492.3 -07.6581 26206.7
 14 10 2013  23 53  -21.0312 25972.7 -03492.3 -07.6582 26206.4
 14 10 2013  23 54  -21.0306 25972.8 -03492.4 -07.6583 26206.5
 14 10 2013  23 55  -21.0297 25973.0 -03492.6 -07.6587 26206.7
 14 10 2013  23 56  -21.0290 25973.2 -03492.9 -07.6591 26207.0
 14 10 2013  23 57  -21.0282 25973.0 -03492.9 -07.6592 26206.8
