SAO LUIS EMBRACE-03 <284> 1 Min. Reported data

 DD MM YYYY  HH MM   D(Deg)  H(nT)   Z(nT)   I(Deg)   F(nT)

 11 10 2013  00 00  -21.0218 26009.1 -03494.0 -07.6511 26242.7
 11 10 2013  00 01  -21.0218 26009.1 -03494.0 -07.6511 26242.7
 11 10 2013  00 02  -21.0218 26009.1 -03494.0 -07.6511 26242.7
 11 10 2013  00 03  -21.0216 26009.1 -03494.0 -07.6511 26242.8
 11 10 2013  00 04  -21.0216 26009.4 -03494.1 -07.6513 26243.0
 11 10 2013  00 05  -21.0215 26009.3 -03494.1 -07.6513 26242.9
 11 10 2013  00 06  -21.0216 26009.2 -03494.0 -07.6512 26242.8
 11 10 2013  00 07  -21.0216 26009.2 -03494.0 -07.6512 26242.9
 11 10 2013  00 08  -21.0217 26009.2 -03494.0 -07.6511 26242.8
 11 10 2013  00 09  -21.0217 26009.1 -03493.9 -07.6510 26242.7
 11 10 2013  00 10  -21.0216 26009.1 -03493.9 -07.6510 26242.7
 11 10 2013  00 11  -21.0217 26009.0 -03493.9 -07.6509 26242.7
 11 10 2013  00 12  -21.0218 26009.1 -03493.9 -07.6509 26242.7
 11 10 2013  00 13  -21.0220 26009.1 -03493.9 -07.6509 26242.7
 11 10 2013  00 14  -21.0222 26008.9 -03493.8 -07.6508 26242.5
 11 10 2013  00 15  -21.0223 26008.8 -03493.8 -07.6507 26242.4
 11 10 2013  00 16  -21.0224 26008.8 -03493.7 -07.6507 26242.4
 11 10 2013  00 17  -21.0226 26008.6 -03493.7 -07.6506 26242.2
 11 10 2013  00 18  -21.0228 26008.5 -03493.6 -07.6506 26242.1
 11 10 2013  00 19  -21.0229 26008.5 -03493.6 -07.6505 26242.1
 11 10 2013  00 20  -21.0230 26008.4 -03493.6 -07.6504 26242.0
 11 10 2013  00 21  -21.0230 26008.2 -03493.5 -07.6504 26241.8
 11 10 2013  00 22  -21.0230 26008.1 -03493.5 -07.6503 26241.7
 11 10 2013  00 23  -21.0229 26008.1 -03493.5 -07.6503 26241.7
 11 10 2013  00 24  -21.0229 26008.1 -03493.5 -07.6504 26241.7
 11 10 2013  00 25  -21.0230 26008.2 -03493.6 -07.6505 26241.8
 11 10 2013  00 26  -21.0232 26008.2 -03493.6 -07.6505 26241.8
 11 10 2013  00 27  -21.0232 26008.3 -03493.7 -07.6506 26241.9
 11 10 2013  00 28  -21.0234 26008.4 -03493.7 -07.6507 26242.0
 11 10 2013  00 29  -21.0235 26008.4 -03493.8 -07.6508 26242.0
 11 10 2013  00 30  -21.0236 26008.5 -03493.7 -07.6508 26242.1
 11 10 2013  00 31  -21.0236 26008.5 -03493.8 -07.6509 26242.2
 11 10 2013  00 32  -21.0235 26008.4 -03493.7 -07.6508 26242.0
 11 10 2013  00 33  -21.0232 26008.2 -03493.6 -07.6505 26241.8
 11 10 2013  00 34  -21.0230 26008.0 -03493.5 -07.6503 26241.5
 11 10 2013  00 35  -21.0228 26007.8 -03493.4 -07.6502 26241.4
 11 10 2013  00 36  -21.0227 26007.6 -03493.3 -07.6501 26241.2
 11 10 2013  00 37  -21.0225 26007.5 -03493.3 -07.6501 26241.0
 11 10 2013  00 38  -21.0222 26007.3 -03493.2 -07.6500 26240.9
 11 10 2013  00 39  -21.0220 26007.1 -03493.2 -07.6500 26240.6
 11 10 2013  00 40  -21.0219 26006.9 -03493.1 -07.6499 26240.4
 11 10 2013  00 41  -21.0216 26006.8 -03493.1 -07.6499 26240.3
 11 10 2013  00 42  -21.0215 26006.7 -03493.2 -07.6500 26240.2
 11 10 2013  00 43  -21.0214 26006.7 -03493.2 -07.6501 26240.3
 11 10 2013  00 44  -21.0214 26006.7 -03493.3 -07.6503 26240.3
 11 10 2013  00 45  -21.0214 26006.8 -03493.4 -07.6505 26240.3
 11 10 2013  00 46  -21.0213 26006.8 -03493.5 -07.6507 26240.4
 11 10 2013  00 47  -21.0211 26006.8 -03493.5 -07.6508 26240.4
 11 10 2013  00 48  -21.0210 26006.9 -03493.6 -07.6510 26240.5
 11 10 2013  00 49  -21.0210 26006.9 -03493.7 -07.6511 26240.5
 11 10 2013  00 50  -21.0209 26007.0 -03493.7 -07.6512 26240.6
 11 10 2013  00 51  -21.0209 26006.9 -03493.8 -07.6513 26240.6
 11 10 2013  00 52  -21.0208 26006.9 -03493.7 -07.6513 26240.5
 11 10 2013  00 53  -21.0206 26006.8 -03493.7 -07.6513 26240.4
 11 10 2013  00 54  -21.0204 26006.7 -03493.7 -07.6512 26240.3
 11 10 2013  00 55  -21.0203 26006.7 -03493.8 -07.6513 26240.4
 11 10 2013  00 56  -21.0202 26006.8 -03493.9 -07.6515 26240.4
 11 10 2013  00 57  -21.0202 26006.5 -03493.8 -07.6515 26240.1
 11 10 2013  00 58  -21.0202 26006.8 -03494.0 -07.6517 26240.5
 11 10 2013  00 59  -21.0202 26007.3 -03494.2 -07.6522 26241.0
 11 10 2013  01 00  -21.0204 26007.2 -03494.2 -07.6522 26240.8
 11 10 2013  01 01  -21.0204 26007.2 -03494.2 -07.6521 26240.8
 11 10 2013  01 02  -21.0202 26007.6 -03494.4 -07.6524 26241.3
 11 10 2013  01 03  -21.0202 26007.7 -03494.5 -07.6526 26241.4
 11 10 2013  01 04  -21.0202 26007.6 -03494.4 -07.6525 26241.3
 11 10 2013  01 05  -21.0202 26007.4 -03494.3 -07.6524 26241.1
 11 10 2013  01 06  -21.0199 26007.8 -03494.5 -07.6525 26241.5
 11 10 2013  01 07  -21.0197 26008.0 -03494.6 -07.6527 26241.7
 11 10 2013  01 08  -21.0198 26007.6 -03494.5 -07.6526 26241.3
 11 10 2013  01 09  -21.0197 26007.8 -03494.5 -07.6526 26241.5
 11 10 2013  01 10  -21.0192 26008.1 -03494.6 -07.6527 26241.9
 11 10 2013  01 11  -21.0192 26008.1 -03494.6 -07.6528 26241.8
 11 10 2013  01 12  -21.0192 26007.8 -03494.5 -07.6527 26241.5
 11 10 2013  01 13  -21.0189 26008.3 -03494.7 -07.6529 26242.0
 11 10 2013  01 14  -21.0189 26008.4 -03494.8 -07.6530 26242.1
 11 10 2013  01 15  -21.0188 26008.2 -03494.7 -07.6529 26242.0
 11 10 2013  01 16  -21.0185 26008.2 -03494.7 -07.6529 26241.9
 11 10 2013  01 17  -21.0184 26008.4 -03494.7 -07.6530 26242.1
 11 10 2013  01 18  -21.0184 26008.4 -03494.7 -07.6530 26242.1
 11 10 2013  01 19  -21.0182 26008.3 -03494.7 -07.6529 26242.0
 11 10 2013  01 20  -21.0182 26008.1 -03494.6 -07.6527 26241.8
 11 10 2013  01 21  -21.0180 26008.2 -03494.6 -07.6528 26241.9
 11 10 2013  01 22  -21.0180 26008.2 -03494.6 -07.6528 26241.9
 11 10 2013  01 23  -21.0180 26008.0 -03494.6 -07.6527 26241.7
 11 10 2013  01 24  -21.0179 26008.1 -03494.6 -07.6527 26241.8
 11 10 2013  01 25  -21.0178 26008.1 -03494.6 -07.6528 26241.8
 11 10 2013  01 26  -21.0179 26007.8 -03494.5 -07.6526 26241.5
 11 10 2013  01 27  -21.0179 26007.7 -03494.4 -07.6525 26241.4
 11 10 2013  01 28  -21.0180 26007.6 -03494.3 -07.6523 26241.3
 11 10 2013  01 29  -21.0181 26007.6 -03494.4 -07.6524 26241.3
 11 10 2013  01 30  -21.0185 26007.5 -03494.3 -07.6523 26241.1
 11 10 2013  01 31  -21.0187 26007.5 -03494.3 -07.6523 26241.2
 11 10 2013  01 32  -21.0188 26007.5 -03494.4 -07.6524 26241.2
 11 10 2013  01 33  -21.0191 26007.4 -03494.3 -07.6523 26241.1
 11 10 2013  01 34  -21.0192 26007.5 -03494.3 -07.6524 26241.1
 11 10 2013  01 35  -21.0194 26007.4 -03494.3 -07.6523 26241.1
 11 10 2013  01 36  -21.0197 26007.3 -03494.3 -07.6522 26241.0
 11 10 2013  01 37  -21.0197 26007.3 -03494.2 -07.6522 26241.0
 11 10 2013  01 38  -21.0199 26007.3 -03494.2 -07.6522 26240.9
 11 10 2013  01 39  -21.0201 26007.2 -03494.2 -07.6521 26240.8
 11 10 2013  01 40  -21.0201 26007.2 -03494.2 -07.6520 26240.9
 11 10 2013  01 41  -21.0203 26007.1 -03494.1 -07.6520 26240.7
 11 10 2013  01 42  -21.0205 26007.0 -03494.0 -07.6519 26240.6
 11 10 2013  01 43  -21.0205 26007.1 -03494.1 -07.6520 26240.7
 11 10 2013  01 44  -21.0208 26006.7 -03494.0 -07.6518 26240.4
 11 10 2013  01 45  -21.0208 26006.8 -03494.0 -07.6518 26240.4
 11 10 2013  01 46  -21.0210 26006.6 -03493.9 -07.6517 26240.2
 11 10 2013  01 47  -21.0213 26006.4 -03493.8 -07.6515 26240.1
 11 10 2013  01 48  -21.0212 26006.7 -03493.9 -07.6516 26240.3
 11 10 2013  01 49  -21.0214 26006.6 -03493.9 -07.6516 26240.2
 11 10 2013  01 50  -21.0216 26006.7 -03493.9 -07.6517 26240.3
 11 10 2013  01 51  -21.0217 26006.9 -03494.0 -07.6519 26240.5
 11 10 2013  01 52  -21.0219 26006.9 -03494.1 -07.6519 26240.5
 11 10 2013  01 53  -21.0217 26007.2 -03494.2 -07.6521 26240.9
 11 10 2013  01 54  -21.0218 26007.2 -03494.2 -07.6522 26240.9
 11 10 2013  01 55  -21.0217 26007.3 -03494.2 -07.6522 26241.0
 11 10 2013  01 56  -21.0216 26007.5 -03494.3 -07.6523 26241.2
 11 10 2013  01 57  -21.0215 26007.5 -03494.3 -07.6524 26241.2
 11 10 2013  01 58  -21.0212 26007.6 -03494.4 -07.6524 26241.3
 11 10 2013  01 59  -21.0212 26007.7 -03494.4 -07.6524 26241.4
 11 10 2013  02 00  -21.0212 26007.9 -03494.5 -07.6525 26241.6
 11 10 2013  02 01  -21.0213 26008.0 -03494.6 -07.6527 26241.7
 11 10 2013  02 02  -21.0212 26008.0 -03494.6 -07.6527 26241.7
 11 10 2013  02 03  -21.0210 26008.3 -03494.7 -07.6528 26242.0
 11 10 2013  02 04  -21.0210 26008.3 -03494.7 -07.6529 26242.0
 11 10 2013  02 05  -21.0209 26008.3 -03494.7 -07.6529 26242.1
 11 10 2013  02 06  -21.0209 26008.4 -03494.7 -07.6529 26242.1
 11 10 2013  02 07  -21.0208 26008.3 -03494.7 -07.6528 26242.0
 11 10 2013  02 08  -21.0206 26008.4 -03494.6 -07.6528 26242.1
 11 10 2013  02 09  -21.0207 26008.4 -03494.7 -07.6528 26242.2
 11 10 2013  02 10  -21.0209 26008.4 -03494.7 -07.6528 26242.1
 11 10 2013  02 11  -21.0212 26008.2 -03494.6 -07.6526 26241.9
 11 10 2013  02 12  -21.0213 26008.2 -03494.5 -07.6526 26241.9
 11 10 2013  02 13  -21.0215 26008.3 -03494.5 -07.6526 26242.0
 11 10 2013  02 14  -21.0219 26008.2 -03494.6 -07.6526 26241.9
 11 10 2013  02 15  -21.0222 26008.3 -03494.6 -07.6526 26242.0
 11 10 2013  02 16  -21.0225 26008.3 -03494.6 -07.6526 26242.0
 11 10 2013  02 17  -21.0226 26008.5 -03494.6 -07.6527 26242.2
 11 10 2013  02 18  -21.0227 26008.3 -03494.6 -07.6527 26242.0
 11 10 2013  02 19  -21.0226 26008.3 -03494.6 -07.6526 26242.0
 11 10 2013  02 20  -21.0224 26008.2 -03494.5 -07.6525 26241.9
 11 10 2013  02 21  -21.0223 26008.1 -03494.4 -07.6524 26241.8
 11 10 2013  02 22  -21.0222 26008.2 -03494.5 -07.6526 26241.9
 11 10 2013  02 23  -21.0224 26008.1 -03494.5 -07.6526 26241.8
 11 10 2013  02 24  -21.0226 26007.9 -03494.5 -07.6526 26241.7
 11 10 2013  02 25  -21.0227 26007.9 -03494.5 -07.6525 26241.6
 11 10 2013  02 26  -21.0229 26007.8 -03494.4 -07.6525 26241.5
 11 10 2013  02 27  -21.0231 26007.6 -03494.3 -07.6523 26241.3
 11 10 2013  02 28  -21.0230 26007.6 -03494.3 -07.6523 26241.3
 11 10 2013  02 29  -21.0231 26007.3 -03494.2 -07.6521 26241.0
 11 10 2013  02 30  -21.0233 26007.2 -03494.1 -07.6520 26240.9
 11 10 2013  02 31  -21.0236 26007.3 -03494.2 -07.6521 26240.9
 11 10 2013  02 32  -21.0239 26007.1 -03494.2 -07.6521 26240.8
 11 10 2013  02 33  -21.0242 26006.8 -03494.0 -07.6518 26240.5
 11 10 2013  02 34  -21.0244 26006.7 -03493.9 -07.6517 26240.4
 11 10 2013  02 35  -21.0246 26006.7 -03493.9 -07.6517 26240.3
 11 10 2013  02 36  -21.0247 26006.7 -03494.0 -07.6519 26240.4
 11 10 2013  02 37  -21.0248 26006.6 -03493.9 -07.6518 26240.2
 11 10 2013  02 38  -21.0249 26006.7 -03494.0 -07.6519 26240.4
 11 10 2013  02 39  -21.0250 26007.0 -03494.2 -07.6522 26240.7
 11 10 2013  02 40  -21.0253 26007.1 -03494.3 -07.6525 26240.8
 11 10 2013  02 41  -21.0254 26007.2 -03494.4 -07.6526 26240.9
 11 10 2013  02 42  -21.0254 26007.3 -03494.5 -07.6527 26241.1
 11 10 2013  02 43  -21.0257 26007.2 -03494.5 -07.6527 26241.0
 11 10 2013  02 44  -21.0258 26007.3 -03494.5 -07.6527 26241.1
 11 10 2013  02 45  -21.0261 26007.2 -03494.5 -07.6527 26241.0
 11 10 2013  02 46  -21.0263 26007.3 -03494.5 -07.6527 26241.0
 11 10 2013  02 47  -21.0266 26007.3 -03494.5 -07.6528 26241.1
 11 10 2013  02 48  -21.0267 26007.2 -03494.5 -07.6527 26241.0
 11 10 2013  02 49  -21.0267 26007.2 -03494.4 -07.6526 26240.9
 11 10 2013  02 50  -21.0267 26007.2 -03494.4 -07.6526 26240.9
 11 10 2013  02 51  -21.0268 26007.2 -03494.4 -07.6526 26240.9
 11 10 2013  02 52  -21.0270 26007.1 -03494.4 -07.6526 26240.8
 11 10 2013  02 53  -21.0272 26007.0 -03494.4 -07.6526 26240.7
 11 10 2013  02 54  -21.0273 26006.9 -03494.3 -07.6525 26240.6
 11 10 2013  02 55  -21.0273 26006.8 -03494.2 -07.6523 26240.5
 11 10 2013  02 56  -21.0274 26006.8 -03494.3 -07.6524 26240.5
 11 10 2013  02 57  -21.0278 26006.6 -03494.2 -07.6524 26240.3
 11 10 2013  02 58  -21.0279 26006.4 -03494.1 -07.6522 26240.1
 11 10 2013  02 59  -21.0280 26006.2 -03494.0 -07.6520 26239.9
 11 10 2013  03 00  -21.0279 26006.1 -03493.9 -07.6519 26239.7
 11 10 2013  03 01  -21.0281 26005.9 -03493.9 -07.6518 26239.6
 11 10 2013  03 02  -21.0281 26005.8 -03493.8 -07.6517 26239.5
 11 10 2013  03 03  -21.0283 26005.8 -03493.8 -07.6518 26239.4
 11 10 2013  03 04  -21.0286 26005.7 -03493.8 -07.6518 26239.3
 11 10 2013  03 05  -21.0288 26005.7 -03493.8 -07.6518 26239.3
 11 10 2013  03 06  -21.0288 26005.6 -03493.8 -07.6518 26239.2
 11 10 2013  03 07  -21.0289 26005.5 -03493.7 -07.6516 26239.1
 11 10 2013  03 08  -21.0289 26005.3 -03493.7 -07.6515 26238.9
 11 10 2013  03 09  -21.0287 26005.1 -03493.6 -07.6514 26238.7
 11 10 2013  03 10  -21.0286 26004.8 -03493.4 -07.6512 26238.4
 11 10 2013  03 11  -21.0286 26004.7 -03493.4 -07.6511 26238.3
 11 10 2013  03 12  -21.0286 26004.6 -03493.4 -07.6511 26238.2
 11 10 2013  03 13  -21.0285 26004.4 -03493.3 -07.6510 26238.0
 11 10 2013  03 14  -21.0285 26004.3 -03493.3 -07.6509 26237.9
 11 10 2013  03 15  -21.0286 26004.3 -03493.3 -07.6510 26237.9
 11 10 2013  03 16  -21.0288 26004.3 -03493.4 -07.6512 26237.9
 11 10 2013  03 17  -21.0287 26004.2 -03493.3 -07.6511 26237.8
 11 10 2013  03 18  -21.0283 26004.1 -03493.2 -07.6510 26237.6
 11 10 2013  03 19  -21.0282 26004.0 -03493.2 -07.6510 26237.6
 11 10 2013  03 20  -21.0283 26004.0 -03493.2 -07.6510 26237.6
 11 10 2013  03 21  -21.0283 26004.0 -03493.3 -07.6511 26237.6
 11 10 2013  03 22  -21.0283 26003.9 -03493.2 -07.6510 26237.5
 11 10 2013  03 23  -21.0282 26004.0 -03493.3 -07.6510 26237.6
 11 10 2013  03 24  -21.0281 26003.9 -03493.2 -07.6510 26237.5
 11 10 2013  03 25  -21.0281 26003.8 -03493.2 -07.6511 26237.4
 11 10 2013  03 26  -21.0282 26003.8 -03493.3 -07.6511 26237.3
 11 10 2013  03 27  -21.0283 26003.7 -03493.3 -07.6511 26237.3
 11 10 2013  03 28  -21.0282 26003.6 -03493.2 -07.6511 26237.2
 11 10 2013  03 29  -21.0281 26003.5 -03493.2 -07.6510 26237.1
 11 10 2013  03 30  -21.0278 26003.5 -03493.2 -07.6510 26237.0
 11 10 2013  03 31  -21.0276 26003.4 -03493.2 -07.6510 26236.9
 11 10 2013  03 32  -21.0275 26003.4 -03493.2 -07.6511 26236.9
 11 10 2013  03 33  -21.0274 26003.3 -03493.2 -07.6511 26236.9
 11 10 2013  03 34  -21.0272 26003.3 -03493.2 -07.6512 26236.9
 11 10 2013  03 35  -21.0271 26003.2 -03493.2 -07.6512 26236.8
 11 10 2013  03 36  -21.0270 26003.2 -03493.2 -07.6512 26236.7
 11 10 2013  03 37  -21.0270 26003.0 -03493.2 -07.6512 26236.6
 11 10 2013  03 38  -21.0267 26003.0 -03493.2 -07.6511 26236.6
 11 10 2013  03 39  -21.0264 26002.8 -03493.1 -07.6511 26236.4
 11 10 2013  03 40  -21.0261 26002.6 -03493.1 -07.6511 26236.2
 11 10 2013  03 41  -21.0258 26002.6 -03493.1 -07.6512 26236.1
 11 10 2013  03 42  -21.0256 26002.6 -03493.2 -07.6513 26236.2
 11 10 2013  03 43  -21.0256 26002.7 -03493.3 -07.6515 26236.3
 11 10 2013  03 44  -21.0257 26002.7 -03493.4 -07.6517 26236.3
 11 10 2013  03 45  -21.0257 26002.7 -03493.5 -07.6518 26236.4
 11 10 2013  03 46  -21.0258 26002.8 -03493.6 -07.6520 26236.4
 11 10 2013  03 47  -21.0260 26002.8 -03493.6 -07.6521 26236.4
 11 10 2013  03 48  -21.0259 26002.7 -03493.6 -07.6522 26236.3
 11 10 2013  03 49  -21.0258 26002.6 -03493.6 -07.6521 26236.3
 11 10 2013  03 50  -21.0256 26002.6 -03493.6 -07.6522 26236.2
 11 10 2013  03 51  -21.0251 26002.5 -03493.6 -07.6521 26236.1
 11 10 2013  03 52  -21.0249 26002.4 -03493.6 -07.6522 26236.0
 11 10 2013  03 53  -21.0247 26002.4 -03493.6 -07.6523 26236.0
 11 10 2013  03 54  -21.0247 26002.4 -03493.7 -07.6525 26236.1
 11 10 2013  03 55  -21.0245 26002.3 -03493.7 -07.6526 26235.9
 11 10 2013  03 56  -21.0243 26002.3 -03493.8 -07.6526 26235.9
 11 10 2013  03 57  -21.0243 26002.3 -03493.9 -07.6528 26236.0
 11 10 2013  03 58  -21.0245 26002.3 -03494.0 -07.6531 26236.0
 11 10 2013  03 59  -21.0244 26002.2 -03494.0 -07.6531 26235.9
 11 10 2013  04 00  -21.0242 26002.0 -03493.9 -07.6530 26235.7
 11 10 2013  04 01  -21.0238 26001.9 -03493.9 -07.6530 26235.6
 11 10 2013  04 02  -21.0235 26001.7 -03493.9 -07.6530 26235.4
 11 10 2013  04 03  -21.0231 26001.6 -03493.8 -07.6530 26235.3
 11 10 2013  04 04  -21.0225 26001.4 -03493.8 -07.6530 26235.1
 11 10 2013  04 05  -21.0224 26001.3 -03493.8 -07.6530 26235.0
 11 10 2013  04 06  -21.0225 26001.3 -03493.9 -07.6532 26235.0
 11 10 2013  04 07  -21.0229 26001.2 -03494.0 -07.6534 26235.0
 11 10 2013  04 08  -21.0232 26001.3 -03494.1 -07.6535 26235.0
 11 10 2013  04 09  -21.0233 26001.3 -03494.1 -07.6537 26235.0
 11 10 2013  04 10  -21.0233 26001.3 -03494.1 -07.6537 26235.0
 11 10 2013  04 11  -21.0235 26001.2 -03494.1 -07.6537 26234.9
 11 10 2013  04 12  -21.0234 26001.0 -03494.1 -07.6537 26234.7
 11 10 2013  04 13  -21.0235 26000.9 -03494.1 -07.6537 26234.7
 11 10 2013  04 14  -21.0237 26001.0 -03494.1 -07.6537 26234.7
 11 10 2013  04 15  -21.0239 26001.1 -03494.1 -07.6538 26234.8
 11 10 2013  04 16  -21.0241 26001.1 -03494.2 -07.6539 26234.8
 11 10 2013  04 17  -21.0243 26001.2 -03494.3 -07.6540 26235.0
 11 10 2013  04 18  -21.0242 26001.3 -03494.3 -07.6541 26235.1
 11 10 2013  04 19  -21.0241 26001.5 -03494.4 -07.6542 26235.3
 11 10 2013  04 20  -21.0241 26001.7 -03494.5 -07.6543 26235.4
 11 10 2013  04 21  -21.0244 26002.0 -03494.7 -07.6547 26235.8
 11 10 2013  04 22  -21.0246 26002.3 -03494.8 -07.6549 26236.1
 11 10 2013  04 23  -21.0250 26002.5 -03494.9 -07.6551 26236.4
 11 10 2013  04 24  -21.0252 26002.8 -03495.0 -07.6552 26236.6
 11 10 2013  04 25  -21.0254 26002.9 -03495.1 -07.6552 26236.8
 11 10 2013  04 26  -21.0255 26003.1 -03495.1 -07.6552 26236.9
 11 10 2013  04 27  -21.0256 26003.3 -03495.1 -07.6553 26237.2
 11 10 2013  04 28  -21.0260 26003.6 -03495.3 -07.6555 26237.5
 11 10 2013  04 29  -21.0265 26003.8 -03495.3 -07.6556 26237.7
 11 10 2013  04 30  -21.0272 26003.9 -03495.3 -07.6555 26237.7
 11 10 2013  04 31  -21.0280 26004.0 -03495.3 -07.6555 26237.9
 11 10 2013  04 32  -21.0288 26004.2 -03495.3 -07.6555 26238.0
 11 10 2013  04 33  -21.0293 26004.2 -03495.3 -07.6553 26238.1
 11 10 2013  04 34  -21.0296 26004.4 -03495.3 -07.6552 26238.3
 11 10 2013  04 35  -21.0298 26004.5 -03495.2 -07.6551 26238.4
 11 10 2013  04 36  -21.0299 26004.6 -03495.1 -07.6549 26238.4
 11 10 2013  04 37  -21.0297 26004.6 -03495.0 -07.6547 26238.4
 11 10 2013  04 38  -21.0296 26004.5 -03494.9 -07.6545 26238.3
 11 10 2013  04 39  -21.0293 26004.4 -03494.8 -07.6542 26238.2
 11 10 2013  04 40  -21.0292 26004.4 -03494.7 -07.6540 26238.1
 11 10 2013  04 41  -21.0292 26004.4 -03494.7 -07.6539 26238.2
 11 10 2013  04 42  -21.0291 26004.4 -03494.6 -07.6539 26238.1
 11 10 2013  04 43  -21.0288 26004.4 -03494.5 -07.6537 26238.1
 11 10 2013  04 44  -21.0286 26004.4 -03494.6 -07.6537 26238.2
 11 10 2013  04 45  -21.0283 26004.5 -03494.5 -07.6537 26238.2
 11 10 2013  04 46  -21.0277 26004.5 -03494.6 -07.6537 26238.3
 11 10 2013  04 47  -21.0272 26004.6 -03494.6 -07.6538 26238.4
 11 10 2013  04 48  -21.0270 26004.7 -03494.7 -07.6539 26238.5
 11 10 2013  04 49  -21.0270 26004.9 -03494.8 -07.6541 26238.7
 11 10 2013  04 50  -21.0270 26005.0 -03494.9 -07.6542 26238.8
 11 10 2013  04 51  -21.0269 26005.1 -03494.9 -07.6542 26238.9
 11 10 2013  04 52  -21.0268 26005.1 -03494.9 -07.6542 26238.9
 11 10 2013  04 53  -21.0267 26005.0 -03494.8 -07.6541 26238.8
 11 10 2013  04 54  -21.0266 26004.9 -03494.8 -07.6540 26238.7
 11 10 2013  04 55  -21.0264 26004.8 -03494.7 -07.6539 26238.6
 11 10 2013  04 56  -21.0261 26004.6 -03494.6 -07.6537 26238.4
 11 10 2013  04 57  -21.0258 26004.5 -03494.5 -07.6535 26238.2
 11 10 2013  04 58  -21.0257 26004.3 -03494.4 -07.6534 26238.1
 11 10 2013  04 59  -21.0257 26004.2 -03494.4 -07.6534 26238.0
 11 10 2013  05 00  -21.0257 26004.2 -03494.4 -07.6534 26237.9
 11 10 2013  05 01  -21.0257 26004.0 -03494.3 -07.6533 26237.8
 11 10 2013  05 02  -21.0258 26003.9 -03494.3 -07.6532 26237.6
 11 10 2013  05 03  -21.0258 26003.9 -03494.3 -07.6532 26237.6
 11 10 2013  05 04  -21.0260 26003.9 -03494.3 -07.6533 26237.6
 11 10 2013  05 05  -21.0261 26003.9 -03494.3 -07.6533 26237.7
 11 10 2013  05 06  -21.0263 26004.0 -03494.4 -07.6534 26237.8
 11 10 2013  05 07  -21.0267 26004.2 -03494.5 -07.6536 26237.9
 11 10 2013  05 08  -21.0269 26004.3 -03494.5 -07.6537 26238.1
 11 10 2013  05 09  -21.0270 26004.4 -03494.6 -07.6538 26238.2
 11 10 2013  05 10  -21.0269 26004.4 -03494.5 -07.6537 26238.1
 11 10 2013  05 11  -21.0267 26004.3 -03494.5 -07.6536 26238.0
 11 10 2013  05 12  -21.0265 26004.3 -03494.4 -07.6535 26238.0
 11 10 2013  05 13  -21.0263 26004.3 -03494.4 -07.6534 26238.0
 11 10 2013  05 14  -21.0263 26004.3 -03494.4 -07.6535 26238.0
 11 10 2013  05 15  -21.0264 26004.3 -03494.5 -07.6537 26238.1
 11 10 2013  05 16  -21.0266 26004.5 -03494.6 -07.6538 26238.2
 11 10 2013  05 17  -21.0268 26004.5 -03494.7 -07.6539 26238.3
 11 10 2013  05 18  -21.0268 26004.6 -03494.7 -07.6539 26238.3
 11 10 2013  05 19  -21.0267 26004.6 -03494.7 -07.6540 26238.3
 11 10 2013  05 20  -21.0265 26004.5 -03494.6 -07.6538 26238.2
 11 10 2013  05 21  -21.0263 26004.5 -03494.6 -07.6539 26238.3
 11 10 2013  05 22  -21.0261 26004.5 -03494.7 -07.6539 26238.3
 11 10 2013  05 23  -21.0258 26004.5 -03494.7 -07.6539 26238.2
 11 10 2013  05 24  -21.0257 26004.5 -03494.7 -07.6540 26238.2
 11 10 2013  05 25  -21.0255 26004.5 -03494.7 -07.6541 26238.2
 11 10 2013  05 26  -21.0255 26004.5 -03494.8 -07.6542 26238.3
 11 10 2013  05 27  -21.0253 26004.5 -03494.8 -07.6543 26238.3
 11 10 2013  05 28  -21.0253 26004.5 -03494.8 -07.6543 26238.3
 11 10 2013  05 29  -21.0253 26004.6 -03494.9 -07.6544 26238.4
 11 10 2013  05 30  -21.0252 26004.6 -03494.9 -07.6544 26238.4
 11 10 2013  05 31  -21.0253 26004.5 -03494.9 -07.6544 26238.3
 11 10 2013  05 32  -21.0252 26004.5 -03494.9 -07.6544 26238.3
 11 10 2013  05 33  -21.0252 26004.5 -03494.8 -07.6543 26238.3
 11 10 2013  05 34  -21.0251 26004.5 -03494.8 -07.6543 26238.2
 11 10 2013  05 35  -21.0252 26004.5 -03494.9 -07.6544 26238.3
 11 10 2013  05 36  -21.0255 26004.5 -03494.9 -07.6543 26238.3
 11 10 2013  05 37  -21.0257 26004.4 -03494.8 -07.6543 26238.2
 11 10 2013  05 38  -21.0257 26004.5 -03494.9 -07.6543 26238.3
 11 10 2013  05 39  -21.0259 26004.4 -03494.8 -07.6543 26238.2
 11 10 2013  05 40  -21.0261 26004.5 -03494.8 -07.6543 26238.3
 11 10 2013  05 41  -21.0263 26004.6 -03494.8 -07.6543 26238.4
 11 10 2013  05 42  -21.0265 26004.6 -03494.8 -07.6543 26238.4
 11 10 2013  05 43  -21.0265 26004.6 -03494.8 -07.6542 26238.3
 11 10 2013  05 44  -21.0265 26004.6 -03494.8 -07.6541 26238.4
 11 10 2013  05 45  -21.0267 26004.7 -03494.8 -07.6542 26238.5
 11 10 2013  05 46  -21.0270 26004.7 -03494.8 -07.6541 26238.5
 11 10 2013  05 47  -21.0273 26004.7 -03494.8 -07.6541 26238.5
 11 10 2013  05 48  -21.0271 26004.9 -03494.8 -07.6541 26238.7
 11 10 2013  05 49  -21.0272 26004.7 -03494.7 -07.6540 26238.5
 11 10 2013  05 50  -21.0273 26004.7 -03494.8 -07.6541 26238.5
 11 10 2013  05 51  -21.0273 26004.7 -03494.8 -07.6541 26238.5
 11 10 2013  05 52  -21.0272 26004.8 -03494.8 -07.6541 26238.6
 11 10 2013  05 53  -21.0270 26005.0 -03494.8 -07.6541 26238.8
 11 10 2013  05 54  -21.0270 26005.1 -03494.9 -07.6542 26238.9
 11 10 2013  05 55  -21.0267 26005.2 -03494.9 -07.6543 26239.0
 11 10 2013  05 56  -21.0264 26005.1 -03494.9 -07.6542 26238.9
 11 10 2013  05 57  -21.0262 26005.2 -03494.9 -07.6542 26239.0
 11 10 2013  05 58  -21.0258 26005.3 -03495.0 -07.6543 26239.1
 11 10 2013  05 59  -21.0252 26005.4 -03495.0 -07.6543 26239.2
 11 10 2013  06 00  -21.0250 26005.7 -03495.1 -07.6545 26239.5
 11 10 2013  06 01  -21.0251 26005.9 -03495.3 -07.6549 26239.7
 11 10 2013  06 02  -21.0253 26006.5 -03495.6 -07.6553 26240.4
 11 10 2013  06 03  -21.0255 26006.8 -03495.7 -07.6555 26240.7
 11 10 2013  06 04  -21.0260 26007.0 -03495.8 -07.6557 26240.9
 11 10 2013  06 05  -21.0263 26007.2 -03495.9 -07.6558 26241.1
 11 10 2013  06 06  -21.0264 26007.3 -03495.8 -07.6557 26241.2
 11 10 2013  06 07  -21.0260 26007.4 -03495.8 -07.6556 26241.3
 11 10 2013  06 08  -21.0258 26007.5 -03495.8 -07.6555 26241.4
 11 10 2013  06 09  -21.0254 26007.5 -03495.8 -07.6554 26241.4
 11 10 2013  06 10  -21.0254 26007.7 -03495.8 -07.6555 26241.6
 11 10 2013  06 11  -21.0256 26007.8 -03495.9 -07.6556 26241.7
 11 10 2013  06 12  -21.0256 26008.0 -03495.9 -07.6557 26241.9
 11 10 2013  06 13  -21.0259 26008.1 -03495.9 -07.6556 26242.0
 11 10 2013  06 14  -21.0259 26008.0 -03495.9 -07.6556 26241.9
 11 10 2013  06 15  -21.0259 26007.9 -03495.8 -07.6555 26241.8
 11 10 2013  06 16  -21.0259 26007.9 -03495.7 -07.6553 26241.7
 11 10 2013  06 17  -21.0262 26007.9 -03495.8 -07.6553 26241.8
 11 10 2013  06 18  -21.0261 26008.0 -03495.8 -07.6553 26241.9
 11 10 2013  06 19  -21.0261 26008.1 -03495.8 -07.6553 26241.9
 11 10 2013  06 20  -21.0258 26008.1 -03495.7 -07.6551 26242.0
 11 10 2013  06 21  -21.0257 26008.0 -03495.6 -07.6550 26241.8
 11 10 2013  06 22  -21.0254 26007.9 -03495.6 -07.6549 26241.8
 11 10 2013  06 23  -21.0248 26007.8 -03495.4 -07.6546 26241.6
 11 10 2013  06 24  -21.0240 26007.6 -03495.3 -07.6545 26241.4
 11 10 2013  06 25  -21.0234 26007.4 -03495.3 -07.6544 26241.3
 11 10 2013  06 26  -21.0230 26007.4 -03495.3 -07.6545 26241.2
 11 10 2013  06 27  -21.0225 26007.4 -03495.3 -07.6545 26241.2
 11 10 2013  06 28  -21.0222 26007.3 -03495.4 -07.6546 26241.2
 11 10 2013  06 29  -21.0220 26007.4 -03495.5 -07.6548 26241.2
 11 10 2013  06 30  -21.0220 26007.5 -03495.6 -07.6550 26241.3
 11 10 2013  06 31  -21.0222 26007.5 -03495.6 -07.6551 26241.4
 11 10 2013  06 32  -21.0223 26007.6 -03495.7 -07.6552 26241.4
 11 10 2013  06 33  -21.0225 26007.6 -03495.7 -07.6553 26241.5
 11 10 2013  06 34  -21.0225 26007.6 -03495.7 -07.6553 26241.5
 11 10 2013  06 35  -21.0224 26007.7 -03495.8 -07.6554 26241.6
 11 10 2013  06 36  -21.0225 26007.9 -03495.8 -07.6555 26241.8
 11 10 2013  06 37  -21.0226 26007.9 -03495.9 -07.6555 26241.8
 11 10 2013  06 38  -21.0227 26008.0 -03495.9 -07.6556 26241.9
 11 10 2013  06 39  -21.0231 26008.1 -03495.9 -07.6557 26242.0
 11 10 2013  06 40  -21.0236 26008.2 -03496.0 -07.6557 26242.1
 11 10 2013  06 41  -21.0239 26008.2 -03496.0 -07.6557 26242.1
 11 10 2013  06 42  -21.0239 26008.3 -03495.9 -07.6556 26242.2
 11 10 2013  06 43  -21.0239 26008.3 -03495.9 -07.6555 26242.2
 11 10 2013  06 44  -21.0241 26008.6 -03496.0 -07.6556 26242.5
 11 10 2013  06 45  -21.0246 26008.7 -03496.1 -07.6557 26242.6
 11 10 2013  06 46  -21.0254 26008.9 -03496.1 -07.6558 26242.9
 11 10 2013  06 47  -21.0259 26009.1 -03496.2 -07.6559 26243.0
 11 10 2013  06 48  -21.0259 26009.2 -03496.1 -07.6557 26243.1
 11 10 2013  06 49  -21.0256 26009.1 -03496.0 -07.6554 26243.0
 11 10 2013  06 50  -21.0257 26009.0 -03495.9 -07.6553 26242.9
 11 10 2013  06 51  -21.0259 26009.1 -03495.9 -07.6552 26243.0
 11 10 2013  06 52  -21.0261 26009.0 -03495.8 -07.6550 26242.9
 11 10 2013  06 53  -21.0263 26009.0 -03495.8 -07.6550 26242.9
 11 10 2013  06 54  -21.0265 26009.0 -03495.7 -07.6549 26242.9
 11 10 2013  06 55  -21.0267 26009.0 -03495.6 -07.6547 26242.9
 11 10 2013  06 56  -21.0272 26009.0 -03495.6 -07.6546 26242.9
 11 10 2013  06 57  -21.0276 26009.0 -03495.6 -07.6546 26242.9
 11 10 2013  06 58  -21.0275 26009.0 -03495.5 -07.6545 26242.8
 11 10 2013  06 59  -21.0271 26009.0 -03495.4 -07.6543 26242.8
 11 10 2013  07 00  -21.0270 26008.9 -03495.4 -07.6541 26242.8
 11 10 2013  07 01  -21.0268 26008.9 -03495.3 -07.6541 26242.7
 11 10 2013  07 02  -21.0266 26008.9 -03495.3 -07.6540 26242.7
 11 10 2013  07 03  -21.0263 26008.9 -03495.3 -07.6540 26242.7
 11 10 2013  07 04  -21.0259 26008.9 -03495.2 -07.6539 26242.7
 11 10 2013  07 05  -21.0258 26008.8 -03495.2 -07.6538 26242.6
 11 10 2013  07 06  -21.0258 26008.8 -03495.2 -07.6538 26242.5
 11 10 2013  07 07  -21.0255 26008.6 -03495.1 -07.6537 26242.4
 11 10 2013  07 08  -21.0252 26008.6 -03495.0 -07.6536 26242.4
 11 10 2013  07 09  -21.0249 26008.6 -03495.1 -07.6536 26242.4
 11 10 2013  07 10  -21.0245 26008.7 -03495.1 -07.6537 26242.5
 11 10 2013  07 11  -21.0240 26008.8 -03495.2 -07.6538 26242.6
 11 10 2013  07 12  -21.0236 26008.9 -03495.2 -07.6539 26242.7
 11 10 2013  07 13  -21.0233 26009.0 -03495.3 -07.6540 26242.9
 11 10 2013  07 14  -21.0230 26009.2 -03495.5 -07.6543 26243.1
 11 10 2013  07 15  -21.0229 26009.6 -03495.7 -07.6547 26243.5
 11 10 2013  07 16  -21.0230 26009.8 -03495.8 -07.6549 26243.7
 11 10 2013  07 17  -21.0229 26010.0 -03495.9 -07.6551 26243.9
 11 10 2013  07 18  -21.0230 26010.0 -03496.0 -07.6552 26243.9
 11 10 2013  07 19  -21.0232 26010.1 -03496.0 -07.6552 26244.0
 11 10 2013  07 20  -21.0235 26010.1 -03496.0 -07.6552 26244.0
 11 10 2013  07 21  -21.0236 26010.0 -03495.9 -07.6551 26243.9
 11 10 2013  07 22  -21.0236 26009.9 -03495.8 -07.6549 26243.8
 11 10 2013  07 23  -21.0234 26009.8 -03495.7 -07.6547 26243.6
 11 10 2013  07 24  -21.0233 26009.6 -03495.6 -07.6546 26243.5
 11 10 2013  07 25  -21.0234 26009.6 -03495.6 -07.6545 26243.5
 11 10 2013  07 26  -21.0233 26009.5 -03495.6 -07.6545 26243.4
 11 10 2013  07 27  -21.0232 26009.4 -03495.6 -07.6544 26243.3
 11 10 2013  07 28  -21.0231 26009.4 -03495.6 -07.6545 26243.2
 11 10 2013  07 29  -21.0233 26009.3 -03495.5 -07.6544 26243.1
 11 10 2013  07 30  -21.0234 26009.2 -03495.5 -07.6544 26243.0
 11 10 2013  07 31  -21.0234 26009.0 -03495.4 -07.6543 26242.9
 11 10 2013  07 32  -21.0234 26008.9 -03495.4 -07.6542 26242.7
 11 10 2013  07 33  -21.0235 26008.8 -03495.3 -07.6541 26242.6
 11 10 2013  07 34  -21.0238 26008.7 -03495.3 -07.6542 26242.5
 11 10 2013  07 35  -21.0240 26008.7 -03495.4 -07.6542 26242.6
 11 10 2013  07 36  -21.0240 26008.7 -03495.4 -07.6543 26242.5
 11 10 2013  07 37  -21.0239 26008.6 -03495.3 -07.6542 26242.4
 11 10 2013  07 38  -21.0240 26008.5 -03495.3 -07.6542 26242.3
 11 10 2013  07 39  -21.0239 26008.3 -03495.3 -07.6542 26242.2
 11 10 2013  07 40  -21.0236 26008.2 -03495.2 -07.6540 26242.0
 11 10 2013  07 41  -21.0232 26008.0 -03495.1 -07.6539 26241.8
 11 10 2013  07 42  -21.0228 26008.0 -03495.1 -07.6539 26241.8
 11 10 2013  07 43  -21.0224 26007.9 -03495.2 -07.6541 26241.8
 11 10 2013  07 44  -21.0220 26007.9 -03495.2 -07.6541 26241.7
 11 10 2013  07 45  -21.0214 26007.8 -03495.2 -07.6542 26241.7
 11 10 2013  07 46  -21.0209 26007.7 -03495.2 -07.6543 26241.5
 11 10 2013  07 47  -21.0204 26007.8 -03495.4 -07.6545 26241.6
 11 10 2013  07 48  -21.0203 26007.9 -03495.6 -07.6549 26241.8
 11 10 2013  07 49  -21.0203 26008.1 -03495.8 -07.6553 26242.0
 11 10 2013  07 50  -21.0205 26008.3 -03496.0 -07.6557 26242.2
 11 10 2013  07 51  -21.0207 26008.5 -03496.2 -07.6560 26242.4
 11 10 2013  07 52  -21.0210 26008.6 -03496.3 -07.6563 26242.6
 11 10 2013  07 53  -21.0211 26008.8 -03496.4 -07.6565 26242.8
 11 10 2013  07 54  -21.0211 26008.8 -03496.5 -07.6566 26242.8
 11 10 2013  07 55  -21.0211 26008.8 -03496.4 -07.6565 26242.7
 11 10 2013  07 56  -21.0211 26008.6 -03496.4 -07.6565 26242.6
 11 10 2013  07 57  -21.0211 26008.4 -03496.3 -07.6563 26242.4
 11 10 2013  07 58  -21.0213 26008.2 -03496.2 -07.6562 26242.2
 11 10 2013  07 59  -21.0216 26008.0 -03496.2 -07.6561 26242.0
 11 10 2013  08 00  -21.0219 26007.9 -03496.1 -07.6561 26241.8
 11 10 2013  08 01  -21.0222 26007.8 -03496.1 -07.6561 26241.8
 11 10 2013  08 02  -21.0225 26007.7 -03496.1 -07.6561 26241.7
 11 10 2013  08 03  -21.0226 26007.7 -03496.1 -07.6561 26241.6
 11 10 2013  08 04  -21.0228 26007.5 -03496.1 -07.6561 26241.5
 11 10 2013  08 05  -21.0230 26007.5 -03496.1 -07.6561 26241.4
 11 10 2013  08 06  -21.0234 26007.6 -03496.1 -07.6562 26241.5
 11 10 2013  08 07  -21.0237 26007.6 -03496.2 -07.6563 26241.5
 11 10 2013  08 08  -21.0239 26007.5 -03496.2 -07.6564 26241.4
 11 10 2013  08 09  -21.0242 26007.5 -03496.2 -07.6564 26241.4
 11 10 2013  08 10  -21.0242 26007.4 -03496.2 -07.6563 26241.3
 11 10 2013  08 11  -21.0244 26007.3 -03496.1 -07.6563 26241.2
 11 10 2013  08 12  -21.0244 26007.2 -03496.1 -07.6562 26241.1
 11 10 2013  08 13  -21.0244 26007.0 -03496.0 -07.6561 26241.0
 11 10 2013  08 14  -21.0242 26006.9 -03496.0 -07.6561 26240.8
 11 10 2013  08 15  -21.0240 26006.7 -03495.9 -07.6559 26240.6
 11 10 2013  08 16  -21.0239 26006.5 -03495.8 -07.6559 26240.4
 11 10 2013  08 17  -21.0239 26006.4 -03495.8 -07.6557 26240.3
 11 10 2013  08 18  -21.0238 26006.1 -03495.7 -07.6556 26240.0
 11 10 2013  08 19  -21.0236 26006.0 -03495.6 -07.6555 26239.8
 11 10 2013  08 20  -21.0231 26005.9 -03495.5 -07.6554 26239.7
 11 10 2013  08 21  -21.0229 26005.7 -03495.5 -07.6554 26239.6
 11 10 2013  08 22  -21.0226 26005.6 -03495.5 -07.6553 26239.5
 11 10 2013  08 23  -21.0222 26005.4 -03495.4 -07.6552 26239.3
 11 10 2013  08 24  -21.0221 26005.2 -03495.4 -07.6552 26239.1
 11 10 2013  08 25  -21.0217 26005.2 -03495.3 -07.6552 26239.0
 11 10 2013  08 26  -21.0213 26005.1 -03495.3 -07.6552 26238.9
 11 10 2013  08 27  -21.0208 26005.0 -03495.3 -07.6552 26238.9
 11 10 2013  08 28  -21.0203 26005.0 -03495.4 -07.6553 26238.9
 11 10 2013  08 29  -21.0199 26005.1 -03495.4 -07.6554 26238.9
 11 10 2013  08 30  -21.0194 26005.0 -03495.5 -07.6556 26238.9
 11 10 2013  08 31  -21.0188 26004.9 -03495.5 -07.6556 26238.8
 11 10 2013  08 32  -21.0183 26004.7 -03495.5 -07.6557 26238.6
 11 10 2013  08 33  -21.0176 26004.5 -03495.5 -07.6558 26238.4
 11 10 2013  08 34  -21.0169 26004.3 -03495.6 -07.6559 26238.2
 11 10 2013  08 35  -21.0162 26004.1 -03495.6 -07.6561 26238.0
 11 10 2013  08 36  -21.0156 26004.0 -03495.7 -07.6562 26237.9
 11 10 2013  08 37  -21.0150 26003.8 -03495.8 -07.6566 26237.7
 11 10 2013  08 38  -21.0144 26003.7 -03496.0 -07.6571 26237.6
 11 10 2013  08 39  -21.0138 26003.5 -03496.2 -07.6575 26237.5
 11 10 2013  08 40  -21.0130 26003.3 -03496.3 -07.6579 26237.3
 11 10 2013  08 41  -21.0124 26003.1 -03496.5 -07.6583 26237.2
 11 10 2013  08 42  -21.0118 26003.0 -03496.7 -07.6589 26237.1
 11 10 2013  08 43  -21.0115 26002.8 -03496.9 -07.6593 26236.9
 11 10 2013  08 44  -21.0113 26002.8 -03497.2 -07.6600 26236.9
 11 10 2013  08 45  -21.0112 26002.9 -03497.6 -07.6607 26237.1
 11 10 2013  08 46  -21.0110 26003.0 -03497.9 -07.6614 26237.2
 11 10 2013  08 47  -21.0108 26003.0 -03498.2 -07.6620 26237.2
 11 10 2013  08 48  -21.0105 26003.0 -03498.5 -07.6627 26237.3
 11 10 2013  08 49  -21.0103 26003.0 -03498.8 -07.6633 26237.3
 11 10 2013  08 50  -21.0100 26003.0 -03499.1 -07.6640 26237.4
 11 10 2013  08 51  -21.0099 26003.0 -03499.4 -07.6647 26237.4
 11 10 2013  08 52  -21.0099 26002.9 -03499.7 -07.6654 26237.4
 11 10 2013  08 53  -21.0099 26002.9 -03500.0 -07.6659 26237.4
 11 10 2013  08 54  -21.0100 26002.7 -03500.2 -07.6664 26237.2
 11 10 2013  08 55  -21.0102 26002.5 -03500.5 -07.6671 26237.1
 11 10 2013  08 56  -21.0106 26002.4 -03500.7 -07.6676 26237.0
 11 10 2013  08 57  -21.0113 26002.2 -03500.9 -07.6682 26236.8
 11 10 2013  08 58  -21.0120 26002.1 -03501.2 -07.6688 26236.8
 11 10 2013  08 59  -21.0123 26001.9 -03501.4 -07.6692 26236.6
 11 10 2013  09 00  -21.0129 26001.8 -03501.6 -07.6697 26236.5
 11 10 2013  09 01  -21.0135 26001.8 -03501.8 -07.6702 26236.5
 11 10 2013  09 02  -21.0140 26001.8 -03502.1 -07.6707 26236.6
 11 10 2013  09 03  -21.0149 26001.8 -03502.3 -07.6713 26236.7
 11 10 2013  09 04  -21.0152 26001.8 -03502.5 -07.6718 26236.6
 11 10 2013  09 05  -21.0157 26001.7 -03502.7 -07.6722 26236.6
 11 10 2013  09 06  -21.0161 26001.5 -03502.9 -07.6726 26236.4
 11 10 2013  09 07  -21.0164 26001.2 -03502.9 -07.6728 26236.1
 11 10 2013  09 08  -21.0168 26001.0 -03503.1 -07.6731 26236.0
 11 10 2013  09 09  -21.0176 26001.0 -03503.3 -07.6736 26235.9
 11 10 2013  09 10  -21.0185 26001.0 -03503.5 -07.6740 26236.0
 11 10 2013  09 11  -21.0194 26001.0 -03503.7 -07.6745 26236.0
 11 10 2013  09 12  -21.0199 26000.9 -03503.8 -07.6747 26235.9
 11 10 2013  09 13  -21.0200 26000.8 -03503.8 -07.6748 26235.8
 11 10 2013  09 14  -21.0203 26000.6 -03504.1 -07.6754 26235.7
 11 10 2013  09 15  -21.0204 26000.4 -03504.2 -07.6758 26235.5
 11 10 2013  09 16  -21.0206 26000.4 -03504.4 -07.6762 26235.5
 11 10 2013  09 17  -21.0204 26000.1 -03504.6 -07.6766 26235.3
 11 10 2013  09 18  -21.0204 25999.8 -03504.7 -07.6770 26234.9
 11 10 2013  09 19  -21.0206 25999.5 -03504.9 -07.6775 26234.6
 11 10 2013  09 20  -21.0211 25999.4 -03505.2 -07.6782 26234.6
 11 10 2013  09 21  -21.0220 25999.5 -03505.5 -07.6788 26234.7
 11 10 2013  09 22  -21.0230 25999.6 -03505.8 -07.6794 26234.9
 11 10 2013  09 23  -21.0239 25999.6 -03506.0 -07.6799 26235.0
 11 10 2013  09 24  -21.0248 25999.6 -03506.1 -07.6802 26234.9
 11 10 2013  09 25  -21.0254 25999.4 -03506.2 -07.6804 26234.7
 11 10 2013  09 26  -21.0259 25999.2 -03506.3 -07.6806 26234.6
 11 10 2013  09 27  -21.0266 25999.1 -03506.4 -07.6809 26234.5
 11 10 2013  09 28  -21.0273 25999.1 -03506.7 -07.6815 26234.6
 11 10 2013  09 29  -21.0275 25998.9 -03506.8 -07.6818 26234.3
 11 10 2013  09 30  -21.0275 25998.6 -03506.8 -07.6819 26234.0
 11 10 2013  09 31  -21.0275 25998.2 -03506.9 -07.6822 26233.7
 11 10 2013  09 32  -21.0279 25998.1 -03507.1 -07.6828 26233.6
 11 10 2013  09 33  -21.0281 25998.0 -03507.3 -07.6832 26233.5
 11 10 2013  09 34  -21.0281 25997.8 -03507.5 -07.6837 26233.3
 11 10 2013  09 35  -21.0285 25997.7 -03507.7 -07.6841 26233.3
 11 10 2013  09 36  -21.0290 25997.6 -03507.9 -07.6845 26233.2
 11 10 2013  09 37  -21.0295 25997.6 -03508.1 -07.6850 26233.2
 11 10 2013  09 38  -21.0303 25997.6 -03508.2 -07.6853 26233.3
 11 10 2013  09 39  -21.0311 25997.6 -03508.3 -07.6855 26233.3
 11 10 2013  09 40  -21.0320 25997.8 -03508.5 -07.6858 26233.4
 11 10 2013  09 41  -21.0323 25997.9 -03508.6 -07.6861 26233.6
 11 10 2013  09 42  -21.0326 25998.1 -03508.8 -07.6863 26233.8
 11 10 2013  09 43  -21.0329 25998.2 -03508.8 -07.6865 26233.9
 11 10 2013  09 44  -21.0332 25998.3 -03508.9 -07.6866 26234.0
 11 10 2013  09 45  -21.0330 25998.4 -03509.0 -07.6867 26234.2
 11 10 2013  09 46  -21.0329 25998.4 -03509.1 -07.6868 26234.2
 11 10 2013  09 47  -21.0333 25998.7 -03509.2 -07.6871 26234.4
 11 10 2013  09 48  -21.0336 25998.8 -03509.4 -07.6874 26234.6
 11 10 2013  09 49  -21.0336 25998.8 -03509.5 -07.6877 26234.6
 11 10 2013  09 50  -21.0334 25998.7 -03509.5 -07.6878 26234.5
 11 10 2013  09 51  -21.0336 25998.7 -03509.6 -07.6880 26234.6
 11 10 2013  09 52  -21.0338 25998.8 -03509.8 -07.6883 26234.6
 11 10 2013  09 53  -21.0340 25998.8 -03509.9 -07.6886 26234.7
 11 10 2013  09 54  -21.0346 25998.9 -03510.1 -07.6889 26234.7
 11 10 2013  09 55  -21.0353 25998.9 -03510.3 -07.6893 26234.8
 11 10 2013  09 56  -21.0354 25998.8 -03510.3 -07.6895 26234.7
 11 10 2013  09 57  -21.0354 25998.8 -03510.4 -07.6897 26234.7
 11 10 2013  09 58  -21.0356 25998.8 -03510.6 -07.6900 26234.7
 11 10 2013  09 59  -21.0360 25998.8 -03510.7 -07.6903 26234.7
 11 10 2013  10 00  -21.0364 25998.8 -03510.9 -07.6906 26234.8
 11 10 2013  10 01  -21.0369 25998.8 -03511.0 -07.6909 26234.8
 11 10 2013  10 02  -21.0373 25998.9 -03511.2 -07.6913 26234.9
 11 10 2013  10 03  -21.0374 25998.9 -03511.3 -07.6916 26234.9
 11 10 2013  10 04  -21.0373 25998.7 -03511.4 -07.6918 26234.8
 11 10 2013  10 05  -21.0377 25998.7 -03511.6 -07.6922 26234.8
 11 10 2013  10 06  -21.0381 25998.8 -03511.7 -07.6926 26234.9
 11 10 2013  10 07  -21.0384 25998.7 -03511.8 -07.6928 26234.9
 11 10 2013  10 08  -21.0384 25998.6 -03511.9 -07.6930 26234.7
 11 10 2013  10 09  -21.0388 25998.5 -03512.0 -07.6933 26234.6
 11 10 2013  10 10  -21.0395 25998.5 -03512.2 -07.6937 26234.6
 11 10 2013  10 11  -21.0403 25998.4 -03512.4 -07.6941 26234.6
 11 10 2013  10 12  -21.0406 25998.3 -03512.5 -07.6944 26234.5
 11 10 2013  10 13  -21.0410 25998.2 -03512.7 -07.6947 26234.4
 11 10 2013  10 14  -21.0411 25998.0 -03512.8 -07.6950 26234.2
 11 10 2013  10 15  -21.0412 25997.8 -03512.8 -07.6952 26234.0
 11 10 2013  10 16  -21.0413 25997.7 -03513.0 -07.6955 26234.0
 11 10 2013  10 17  -21.0417 25997.8 -03513.1 -07.6959 26234.1
 11 10 2013  10 18  -21.0424 25997.8 -03513.3 -07.6962 26234.1
 11 10 2013  10 19  -21.0429 25997.9 -03513.4 -07.6965 26234.2
 11 10 2013  10 20  -21.0435 25998.1 -03513.6 -07.6967 26234.5
 11 10 2013  10 21  -21.0437 25998.3 -03513.7 -07.6970 26234.7
 11 10 2013  10 22  -21.0441 25998.6 -03513.8 -07.6971 26235.0
 11 10 2013  10 23  -21.0443 25998.9 -03514.0 -07.6974 26235.3
 11 10 2013  10 24  -21.0447 25999.2 -03514.1 -07.6976 26235.6
 11 10 2013  10 25  -21.0448 25999.4 -03514.2 -07.6977 26235.8
 11 10 2013  10 26  -21.0450 25999.6 -03514.3 -07.6979 26236.1
 11 10 2013  10 27  -21.0451 25999.7 -03514.4 -07.6980 26236.2
 11 10 2013  10 28  -21.0453 25999.9 -03514.5 -07.6982 26236.4
 11 10 2013  10 29  -21.0455 26000.1 -03514.6 -07.6983 26236.6
 11 10 2013  10 30  -21.0460 26000.0 -03514.6 -07.6984 26236.5
 11 10 2013  10 31  -21.0459 25999.9 -03514.6 -07.6985 26236.3
 11 10 2013  10 32  -21.0456 25999.8 -03514.7 -07.6986 26236.3
 11 10 2013  10 33  -21.0455 26000.2 -03514.9 -07.6990 26236.7
 11 10 2013  10 34  -21.0459 26000.3 -03515.1 -07.6993 26236.8
 11 10 2013  10 35  -21.0464 26000.7 -03515.2 -07.6996 26237.2
 11 10 2013  10 36  -21.0472 26001.1 -03515.4 -07.6998 26237.7
 11 10 2013  10 37  -21.0483 26001.4 -03515.5 -07.6999 26238.0
 11 10 2013  10 38  -21.0494 26001.8 -03515.6 -07.7000 26238.4
 11 10 2013  10 39  -21.0500 26002.1 -03515.6 -07.7000 26238.6
 11 10 2013  10 40  -21.0505 26002.3 -03515.7 -07.7001 26238.9
 11 10 2013  10 41  -21.0510 26002.7 -03515.8 -07.7003 26239.3
 11 10 2013  10 42  -21.0513 26003.3 -03516.0 -07.7004 26239.9
 11 10 2013  10 43  -21.0518 26003.6 -03516.0 -07.7003 26240.3
 11 10 2013  10 44  -21.0522 26003.7 -03515.9 -07.7002 26240.4
 11 10 2013  10 45  -21.0527 26003.7 -03515.8 -07.6999 26240.3
 11 10 2013  10 46  -21.0527 26003.4 -03515.6 -07.6996 26240.0
 11 10 2013  10 47  -21.0528 26003.4 -03515.5 -07.6994 26240.0
 11 10 2013  10 48  -21.0532 26003.4 -03515.5 -07.6994 26240.0
 11 10 2013  10 49  -21.0535 26003.9 -03515.7 -07.6996 26240.5
 11 10 2013  10 50  -21.0539 26004.2 -03515.7 -07.6996 26240.8
 11 10 2013  10 51  -21.0544 26004.7 -03515.8 -07.6996 26241.3
 11 10 2013  10 52  -21.0551 26005.3 -03515.9 -07.6996 26241.9
 11 10 2013  10 53  -21.0560 26005.8 -03515.9 -07.6995 26242.4
 11 10 2013  10 54  -21.0562 26006.1 -03515.8 -07.6991 26242.7
 11 10 2013  10 55  -21.0560 26005.9 -03515.4 -07.6985 26242.4
 11 10 2013  10 56  -21.0555 26005.6 -03515.2 -07.6980 26242.1
 11 10 2013  10 57  -21.0551 26005.6 -03515.1 -07.6977 26242.1
 11 10 2013  10 58  -21.0551 26005.7 -03515.1 -07.6977 26242.2
 11 10 2013  10 59  -21.0551 26006.1 -03515.2 -07.6979 26242.6
 11 10 2013  11 00  -21.0550 26006.6 -03515.3 -07.6980 26243.1
 11 10 2013  11 01  -21.0553 26007.3 -03515.5 -07.6981 26243.8
 11 10 2013  11 02  -21.0558 26007.7 -03515.4 -07.6979 26244.3
 11 10 2013  11 03  -21.0561 26008.1 -03515.4 -07.6978 26244.7
 11 10 2013  11 04  -21.0562 26008.4 -03515.3 -07.6975 26244.9
 11 10 2013  11 05  -21.0567 26008.7 -03515.3 -07.6973 26245.1
 11 10 2013  11 06  -21.0567 26008.9 -03515.2 -07.6970 26245.4
 11 10 2013  11 07  -21.0566 26008.9 -03515.0 -07.6967 26245.4
 11 10 2013  11 08  -21.0564 26009.4 -03515.1 -07.6967 26245.9
 11 10 2013  11 09  -21.0563 26010.0 -03515.2 -07.6967 26246.5
 11 10 2013  11 10  -21.0564 26010.6 -03515.2 -07.6966 26247.1
 11 10 2013  11 11  -21.0565 26011.4 -03515.4 -07.6967 26247.9
 11 10 2013  11 12  -21.0565 26012.1 -03515.4 -07.6965 26248.6
 11 10 2013  11 13  -21.0566 26012.7 -03515.3 -07.6962 26249.2
 11 10 2013  11 14  -21.0568 26013.3 -03515.2 -07.6958 26249.7
 11 10 2013  11 15  -21.0570 26013.8 -03515.1 -07.6955 26250.2
 11 10 2013  11 16  -21.0574 26014.2 -03515.0 -07.6952 26250.6
 11 10 2013  11 17  -21.0577 26014.8 -03515.0 -07.6950 26251.2
 11 10 2013  11 18  -21.0577 26015.5 -03514.9 -07.6946 26251.8
 11 10 2013  11 19  -21.0576 26016.1 -03514.9 -07.6942 26252.5
 11 10 2013  11 20  -21.0576 26016.9 -03514.8 -07.6938 26253.3
 11 10 2013  11 21  -21.0575 26017.6 -03514.6 -07.6933 26253.9
 11 10 2013  11 22  -21.0575 26018.1 -03514.4 -07.6927 26254.4
 11 10 2013  11 23  -21.0577 26018.7 -03514.2 -07.6921 26254.9
 11 10 2013  11 24  -21.0581 26019.2 -03514.0 -07.6915 26255.5
 11 10 2013  11 25  -21.0586 26020.0 -03513.9 -07.6909 26256.2
 11 10 2013  11 26  -21.0592 26020.6 -03513.7 -07.6904 26256.8
 11 10 2013  11 27  -21.0594 26021.3 -03513.5 -07.6897 26257.4
 11 10 2013  11 28  -21.0594 26022.0 -03513.3 -07.6891 26258.1
 11 10 2013  11 29  -21.0594 26022.8 -03513.1 -07.6886 26258.9
 11 10 2013  11 30  -21.0592 26023.6 -03513.0 -07.6880 26259.6
 11 10 2013  11 31  -21.0588 26024.4 -03512.8 -07.6873 26260.4
 11 10 2013  11 32  -21.0586 26025.2 -03512.7 -07.6868 26261.2
 11 10 2013  11 33  -21.0582 26026.2 -03512.5 -07.6862 26262.2
 11 10 2013  11 34  -21.0580 26027.1 -03512.3 -07.6855 26263.0
 11 10 2013  11 35  -21.0577 26027.9 -03512.1 -07.6848 26263.8
 11 10 2013  11 36  -21.0572 26028.5 -03511.9 -07.6842 26264.4
 11 10 2013  11 37  -21.0563 26029.4 -03511.7 -07.6836 26265.2
 11 10 2013  11 38  -21.0554 26030.5 -03511.7 -07.6831 26266.3
 11 10 2013  11 39  -21.0551 26031.5 -03511.6 -07.6826 26267.2
 11 10 2013  11 40  -21.0550 26032.5 -03511.5 -07.6822 26268.2
 11 10 2013  11 41  -21.0550 26033.3 -03511.3 -07.6815 26269.0
 11 10 2013  11 42  -21.0554 26034.0 -03511.1 -07.6809 26269.7
 11 10 2013  11 43  -21.0557 26034.9 -03511.0 -07.6803 26270.5
 11 10 2013  11 44  -21.0558 26035.9 -03510.8 -07.6797 26271.5
 11 10 2013  11 45  -21.0558 26036.6 -03510.6 -07.6790 26272.2
 11 10 2013  11 46  -21.0558 26037.2 -03510.3 -07.6781 26272.7
 11 10 2013  11 47  -21.0560 26037.7 -03510.0 -07.6774 26273.2
 11 10 2013  11 48  -21.0561 26038.2 -03509.7 -07.6767 26273.7
 11 10 2013  11 49  -21.0562 26038.5 -03509.4 -07.6759 26273.9
 11 10 2013  11 50  -21.0565 26038.7 -03509.1 -07.6752 26274.1
 11 10 2013  11 51  -21.0569 26038.9 -03508.9 -07.6746 26274.3
 11 10 2013  11 52  -21.0573 26039.4 -03508.7 -07.6742 26274.7
 11 10 2013  11 53  -21.0580 26039.7 -03508.6 -07.6737 26275.0
 11 10 2013  11 54  -21.0582 26040.0 -03508.3 -07.6732 26275.3
 11 10 2013  11 55  -21.0581 26040.5 -03508.1 -07.6726 26275.7
 11 10 2013  11 56  -21.0583 26040.3 -03507.7 -07.6716 26275.5
 11 10 2013  11 57  -21.0584 26040.3 -03507.4 -07.6710 26275.4
 11 10 2013  11 58  -21.0583 26040.7 -03507.2 -07.6705 26275.9
 11 10 2013  11 59  -21.0584 26040.9 -03506.9 -07.6699 26276.0
 11 10 2013  12 00  -21.0586 26040.8 -03506.6 -07.6691 26275.8
 11 10 2013  12 01  -21.0591 26041.0 -03506.3 -07.6686 26276.0
 11 10 2013  12 02  -21.0598 26041.6 -03506.3 -07.6683 26276.5
 11 10 2013  12 03  -21.0604 26042.0 -03506.1 -07.6678 26276.9
 11 10 2013  12 04  -21.0606 26042.3 -03505.9 -07.6673 26277.2
 11 10 2013  12 05  -21.0606 26042.6 -03505.7 -07.6666 26277.5
 11 10 2013  12 06  -21.0604 26043.1 -03505.5 -07.6662 26278.0
 11 10 2013  12 07  -21.0609 26043.3 -03505.2 -07.6655 26278.1
 11 10 2013  12 08  -21.0613 26042.8 -03504.7 -07.6646 26277.6
 11 10 2013  12 09  -21.0615 26042.9 -03504.4 -07.6639 26277.6
 11 10 2013  12 10  -21.0623 26043.2 -03504.3 -07.6634 26278.0
 11 10 2013  12 11  -21.0626 26043.7 -03504.1 -07.6629 26278.4
 11 10 2013  12 12  -21.0632 26044.6 -03504.0 -07.6625 26279.2
 11 10 2013  12 13  -21.0638 26044.7 -03503.7 -07.6617 26279.3
 11 10 2013  12 14  -21.0641 26045.0 -03503.4 -07.6610 26279.6
 11 10 2013  12 15  -21.0644 26046.5 -03503.5 -07.6608 26281.0
 11 10 2013  12 16  -21.0651 26047.2 -03503.3 -07.6602 26281.8
 11 10 2013  12 17  -21.0652 26047.9 -03503.0 -07.6593 26282.4
 11 10 2013  12 18  -21.0655 26048.0 -03502.5 -07.6582 26282.5
 11 10 2013  12 19  -21.0655 26047.9 -03502.0 -07.6571 26282.2
 11 10 2013  12 20  -21.0655 26048.5 -03501.8 -07.6566 26282.8
 11 10 2013  12 21  -21.0662 26049.7 -03501.9 -07.6564 26284.1
 11 10 2013  12 22  -21.0670 26050.7 -03501.8 -07.6559 26285.0
 11 10 2013  12 23  -21.0678 26051.7 -03501.6 -07.6553 26286.0
 11 10 2013  12 24  -21.0686 26052.0 -03501.2 -07.6542 26286.2
 11 10 2013  12 25  -21.0693 26052.5 -03500.8 -07.6533 26286.6
 11 10 2013  12 26  -21.0700 26052.8 -03500.4 -07.6523 26287.0
 11 10 2013  12 27  -21.0710 26053.3 -03500.1 -07.6516 26287.3
 11 10 2013  12 28  -21.0718 26053.8 -03499.8 -07.6508 26287.8
 11 10 2013  12 29  -21.0722 26053.9 -03499.4 -07.6498 26287.9
 11 10 2013  12 30  -21.0726 26053.9 -03499.0 -07.6489 26287.8
 11 10 2013  12 31  -21.0729 26053.6 -03498.4 -07.6478 26287.5
 11 10 2013  12 32  -21.0732 26053.8 -03498.1 -07.6470 26287.6
 11 10 2013  12 33  -21.0736 26054.4 -03498.0 -07.6465 26288.2
 11 10 2013  12 34  -21.0742 26054.8 -03497.7 -07.6460 26288.5
 11 10 2013  12 35  -21.0743 26055.2 -03497.4 -07.6452 26288.8
 11 10 2013  12 36  -21.0744 26055.5 -03497.1 -07.6444 26289.1
 11 10 2013  12 37  -21.0748 26056.0 -03496.8 -07.6437 26289.6
 11 10 2013  12 38  -21.0750 26056.5 -03496.6 -07.6429 26290.0
 11 10 2013  12 39  -21.0751 26056.6 -03496.1 -07.6420 26290.1
 11 10 2013  12 40  -21.0749 26057.3 -03496.0 -07.6415 26290.8
 11 10 2013  12 41  -21.0748 26058.1 -03495.8 -07.6409 26291.6
 11 10 2013  12 42  -21.0749 26058.9 -03495.7 -07.6403 26292.3
 11 10 2013  12 43  -21.0751 26059.2 -03495.3 -07.6395 26292.6
 11 10 2013  12 44  -21.0751 26059.6 -03495.0 -07.6387 26292.9
 11 10 2013  12 45  -21.0749 26060.2 -03494.8 -07.6380 26293.5
 11 10 2013  12 46  -21.0749 26060.7 -03494.5 -07.6372 26293.9
 11 10 2013  12 47  -21.0753 26061.3 -03494.2 -07.6366 26294.5
 11 10 2013  12 48  -21.0756 26061.5 -03493.9 -07.6356 26294.7
 11 10 2013  12 49  -21.0756 26062.1 -03493.6 -07.6349 26295.2
 11 10 2013  12 50  -21.0753 26062.9 -03493.4 -07.6343 26296.0
 11 10 2013  12 51  -21.0749 26063.3 -03493.1 -07.6335 26296.3
 11 10 2013  12 52  -21.0745 26063.9 -03492.9 -07.6328 26296.9
 11 10 2013  12 53  -21.0741 26064.9 -03492.8 -07.6324 26297.9
 11 10 2013  12 54  -21.0739 26066.0 -03492.8 -07.6320 26299.0
 11 10 2013  12 55  -21.0734 26067.0 -03492.6 -07.6314 26300.0
 11 10 2013  12 56  -21.0731 26068.0 -03492.4 -07.6307 26300.9
 11 10 2013  12 57  -21.0724 26069.1 -03492.3 -07.6300 26301.9
 11 10 2013  12 58  -21.0718 26069.9 -03492.0 -07.6292 26302.7
 11 10 2013  12 59  -21.0711 26070.3 -03491.5 -07.6281 26303.1
 11 10 2013  13 00  -21.0703 26070.8 -03491.1 -07.6271 26303.5
 11 10 2013  13 01  -21.0698 26071.4 -03490.9 -07.6263 26304.0
 11 10 2013  13 02  -21.0696 26072.1 -03490.7 -07.6257 26304.7
 11 10 2013  13 03  -21.0692 26073.0 -03490.5 -07.6251 26305.6
 11 10 2013  13 04  -21.0690 26074.1 -03490.4 -07.6245 26306.7
 11 10 2013  13 05  -21.0689 26074.8 -03490.1 -07.6237 26307.3
 11 10 2013  13 06  -21.0689 26075.3 -03489.7 -07.6227 26307.8
 11 10 2013  13 07  -21.0686 26075.9 -03489.4 -07.6218 26308.4
 11 10 2013  13 08  -21.0685 26076.2 -03488.9 -07.6207 26308.5
 11 10 2013  13 09  -21.0683 26076.2 -03488.4 -07.6195 26308.4
 11 10 2013  13 10  -21.0682 26076.4 -03488.0 -07.6187 26308.7
 11 10 2013  13 11  -21.0680 26076.5 -03487.6 -07.6178 26308.7
 11 10 2013  13 12  -21.0681 26076.4 -03487.2 -07.6169 26308.5
 11 10 2013  13 13  -21.0679 26076.6 -03486.8 -07.6161 26308.7
 11 10 2013  13 14  -21.0680 26076.8 -03486.6 -07.6154 26308.9
 11 10 2013  13 15  -21.0679 26077.1 -03486.3 -07.6147 26309.1
 11 10 2013  13 16  -21.0679 26077.2 -03485.9 -07.6140 26309.2
 11 10 2013  13 17  -21.0679 26077.4 -03485.6 -07.6132 26309.4
 11 10 2013  13 18  -21.0678 26077.6 -03485.3 -07.6125 26309.4
 11 10 2013  13 19  -21.0676 26077.8 -03484.9 -07.6117 26309.6
 11 10 2013  13 20  -21.0673 26078.0 -03484.6 -07.6109 26309.7
 11 10 2013  13 21  -21.0669 26078.4 -03484.3 -07.6102 26310.1
 11 10 2013  13 22  -21.0666 26078.3 -03483.9 -07.6093 26309.9
 11 10 2013  13 23  -21.0660 26078.2 -03483.5 -07.6084 26309.8
 11 10 2013  13 24  -21.0653 26078.7 -03483.3 -07.6079 26310.3
 11 10 2013  13 25  -21.0647 26079.2 -03483.1 -07.6074 26310.8
 11 10 2013  13 26  -21.0640 26080.1 -03483.1 -07.6070 26311.6
 11 10 2013  13 27  -21.0632 26080.8 -03482.9 -07.6064 26312.4
 11 10 2013  13 28  -21.0624 26081.7 -03482.7 -07.6058 26313.1
 11 10 2013  13 29  -21.0617 26082.6 -03482.6 -07.6052 26314.1
 11 10 2013  13 30  -21.0611 26083.4 -03482.3 -07.6044 26314.8
 11 10 2013  13 31  -21.0604 26084.0 -03482.0 -07.6035 26315.3
 11 10 2013  13 32  -21.0596 26084.3 -03481.5 -07.6025 26315.6
 11 10 2013  13 33  -21.0587 26084.5 -03481.1 -07.6015 26315.8
 11 10 2013  13 34  -21.0579 26084.7 -03480.7 -07.6007 26315.9
 11 10 2013  13 35  -21.0573 26084.8 -03480.4 -07.5998 26315.9
 11 10 2013  13 36  -21.0567 26085.0 -03480.1 -07.5991 26316.2
 11 10 2013  13 37  -21.0564 26085.3 -03479.9 -07.5986 26316.4
 11 10 2013  13 38  -21.0561 26085.4 -03479.6 -07.5980 26316.5
 11 10 2013  13 39  -21.0556 26085.5 -03479.3 -07.5974 26316.5
 11 10 2013  13 40  -21.0550 26085.6 -03479.1 -07.5968 26316.6
 11 10 2013  13 41  -21.0546 26085.7 -03478.8 -07.5962 26316.6
 11 10 2013  13 42  -21.0542 26085.7 -03478.6 -07.5957 26316.6
 11 10 2013  13 43  -21.0536 26085.6 -03478.3 -07.5950 26316.5
 11 10 2013  13 44  -21.0531 26085.9 -03478.2 -07.5947 26316.7
 11 10 2013  13 45  -21.0525 26086.0 -03478.0 -07.5943 26316.9
 11 10 2013  13 46  -21.0521 26086.0 -03477.7 -07.5938 26316.8
 11 10 2013  13 47  -21.0514 26086.2 -03477.6 -07.5935 26317.0
 11 10 2013  13 48  -21.0509 26086.4 -03477.5 -07.5931 26317.2
 11 10 2013  13 49  -21.0503 26086.7 -03477.4 -07.5928 26317.5
 11 10 2013  13 50  -21.0497 26087.0 -03477.3 -07.5925 26317.8
 11 10 2013  13 51  -21.0489 26087.2 -03477.1 -07.5921 26317.9
 11 10 2013  13 52  -21.0480 26087.3 -03476.9 -07.5916 26318.0
 11 10 2013  13 53  -21.0471 26087.4 -03476.7 -07.5911 26318.0
 11 10 2013  13 54  -21.0464 26087.5 -03476.5 -07.5907 26318.2
 11 10 2013  13 55  -21.0456 26087.6 -03476.3 -07.5903 26318.2
 11 10 2013  13 56  -21.0449 26087.7 -03476.2 -07.5899 26318.3
 11 10 2013  13 57  -21.0441 26087.7 -03476.0 -07.5896 26318.2
 11 10 2013  13 58  -21.0432 26087.9 -03475.9 -07.5893 26318.4
 11 10 2013  13 59  -21.0423 26087.8 -03475.7 -07.5889 26318.3
 11 10 2013  14 00  -21.0414 26087.9 -03475.6 -07.5886 26318.4
 11 10 2013  14 01  -21.0405 26088.2 -03475.5 -07.5883 26318.7
 11 10 2013  14 02  -21.0397 26088.3 -03475.3 -07.5880 26318.7
 11 10 2013  14 03  -21.0391 26088.3 -03475.1 -07.5875 26318.8
 11 10 2013  14 04  -21.0383 26088.3 -03474.9 -07.5871 26318.7
 11 10 2013  14 05  -21.0376 26088.3 -03474.8 -07.5868 26318.7
 11 10 2013  14 06  -21.0370 26088.8 -03474.9 -07.5868 26319.2
 11 10 2013  14 07  -21.0363 26089.4 -03474.9 -07.5868 26319.8
 11 10 2013  14 08  -21.0356 26089.9 -03475.0 -07.5866 26320.3
 11 10 2013  14 09  -21.0349 26090.4 -03474.9 -07.5864 26320.8
 11 10 2013  14 10  -21.0341 26090.6 -03474.8 -07.5861 26321.0
 11 10 2013  14 11  -21.0334 26090.5 -03474.5 -07.5856 26320.8
 11 10 2013  14 12  -21.0325 26090.6 -03474.4 -07.5853 26320.9
 11 10 2013  14 13  -21.0317 26090.7 -03474.3 -07.5851 26321.0
 11 10 2013  14 14  -21.0306 26090.5 -03474.1 -07.5847 26320.8
 11 10 2013  14 15  -21.0301 26090.3 -03474.0 -07.5845 26320.6
 11 10 2013  14 16  -21.0297 26090.5 -03474.1 -07.5847 26320.8
 11 10 2013  14 17  -21.0294 26090.5 -03474.0 -07.5845 26320.7
 11 10 2013  14 18  -21.0291 26090.4 -03474.0 -07.5845 26320.7
 11 10 2013  14 19  -21.0289 26090.5 -03474.0 -07.5844 26320.8
 11 10 2013  14 20  -21.0288 26090.5 -03474.0 -07.5844 26320.8
 11 10 2013  14 21  -21.0286 26091.1 -03474.2 -07.5848 26321.4
 11 10 2013  14 22  -21.0282 26091.4 -03474.3 -07.5847 26321.7
 11 10 2013  14 23  -21.0280 26092.2 -03474.5 -07.5849 26322.6
 11 10 2013  14 24  -21.0279 26092.6 -03474.4 -07.5847 26322.9
 11 10 2013  14 25  -21.0278 26092.6 -03474.2 -07.5843 26322.9
 11 10 2013  14 26  -21.0274 26092.5 -03474.0 -07.5839 26322.7
 11 10 2013  14 27  -21.0268 26092.1 -03473.7 -07.5834 26322.3
 11 10 2013  14 28  -21.0264 26092.0 -03473.7 -07.5833 26322.2
 11 10 2013  14 29  -21.0264 26091.8 -03473.7 -07.5833 26322.0
 11 10 2013  14 30  -21.0262 26091.5 -03473.6 -07.5833 26321.7
 11 10 2013  14 31  -21.0259 26091.6 -03473.7 -07.5834 26321.8
 11 10 2013  14 32  -21.0260 26091.6 -03473.7 -07.5835 26321.8
 11 10 2013  14 33  -21.0262 26091.7 -03473.8 -07.5836 26321.9
 11 10 2013  14 34  -21.0263 26091.5 -03473.7 -07.5835 26321.7
 11 10 2013  14 35  -21.0267 26091.4 -03473.6 -07.5834 26321.6
 11 10 2013  14 36  -21.0273 26091.3 -03473.6 -07.5833 26321.5
 11 10 2013  14 37  -21.0278 26090.9 -03473.4 -07.5831 26321.1
 11 10 2013  14 38  -21.0279 26090.6 -03473.3 -07.5828 26320.7
 11 10 2013  14 39  -21.0278 26090.2 -03473.1 -07.5826 26320.3
 11 10 2013  14 40  -21.0280 26089.9 -03473.1 -07.5826 26320.0
 11 10 2013  14 41  -21.0282 26089.7 -03473.2 -07.5828 26319.8
 11 10 2013  14 42  -21.0283 26089.6 -03473.2 -07.5830 26319.7
 11 10 2013  14 43  -21.0282 26089.8 -03473.4 -07.5834 26320.0
 11 10 2013  14 44  -21.0280 26089.8 -03473.5 -07.5835 26320.0
 11 10 2013  14 45  -21.0282 26089.9 -03473.5 -07.5834 26320.1
 11 10 2013  14 46  -21.0287 26089.5 -03473.3 -07.5832 26319.6
 11 10 2013  14 47  -21.0291 26089.5 -03473.3 -07.5832 26319.7
 11 10 2013  14 48  -21.0295 26090.0 -03473.5 -07.5834 26320.2
 11 10 2013  14 49  -21.0296 26089.9 -03473.4 -07.5832 26320.1
 11 10 2013  14 50  -21.0296 26089.8 -03473.2 -07.5829 26319.9
 11 10 2013  14 51  -21.0298 26089.8 -03473.1 -07.5827 26320.0
 11 10 2013  14 52  -21.0300 26089.8 -03473.1 -07.5826 26320.0
 11 10 2013  14 53  -21.0301 26089.8 -03473.0 -07.5824 26320.0
 11 10 2013  14 54  -21.0302 26089.8 -03472.9 -07.5822 26319.9
 11 10 2013  14 55  -21.0303 26089.8 -03472.8 -07.5820 26319.9
 11 10 2013  14 56  -21.0302 26089.6 -03472.6 -07.5816 26319.7
 11 10 2013  14 57  -21.0301 26089.1 -03472.3 -07.5812 26319.1
 11 10 2013  14 58  -21.0298 26088.4 -03472.0 -07.5807 26318.4
 11 10 2013  14 59  -21.0294 26087.5 -03471.7 -07.5802 26317.5
 11 10 2013  15 00  -21.0290 26086.8 -03471.5 -07.5801 26316.8
 11 10 2013  15 01  -21.0289 26086.2 -03471.4 -07.5801 26316.2
 11 10 2013  15 02  -21.0290 26085.7 -03471.4 -07.5801 26315.6
 11 10 2013  15 03  -21.0289 26085.3 -03471.4 -07.5802 26315.2
 11 10 2013  15 04  -21.0283 26084.7 -03471.3 -07.5802 26314.6
 11 10 2013  15 05  -21.0276 26083.9 -03471.1 -07.5801 26313.9
 11 10 2013  15 06  -21.0271 26083.4 -03471.2 -07.5803 26313.3
 11 10 2013  15 07  -21.0266 26082.9 -03471.2 -07.5805 26312.8
 11 10 2013  15 08  -21.0260 26082.3 -03471.2 -07.5807 26312.3
 11 10 2013  15 09  -21.0255 26082.1 -03471.3 -07.5811 26312.1
 11 10 2013  15 10  -21.0252 26082.1 -03471.6 -07.5816 26312.1
 11 10 2013  15 11  -21.0249 26082.1 -03471.8 -07.5821 26312.1
 11 10 2013  15 12  -21.0246 26082.2 -03472.0 -07.5824 26312.2
 11 10 2013  15 13  -21.0244 26082.3 -03472.2 -07.5828 26312.4
 11 10 2013  15 14  -21.0243 26082.5 -03472.3 -07.5831 26312.6
 11 10 2013  15 15  -21.0246 26082.6 -03472.4 -07.5833 26312.7
 11 10 2013  15 16  -21.0248 26082.5 -03472.4 -07.5833 26312.6
 11 10 2013  15 17  -21.0247 26082.2 -03472.3 -07.5830 26312.3
 11 10 2013  15 18  -21.0245 26081.7 -03472.0 -07.5826 26311.8
 11 10 2013  15 19  -21.0243 26081.5 -03471.9 -07.5825 26311.5
 11 10 2013  15 20  -21.0244 26081.1 -03471.9 -07.5825 26311.2
 11 10 2013  15 21  -21.0242 26080.7 -03471.7 -07.5823 26310.7
 11 10 2013  15 22  -21.0239 26080.4 -03471.7 -07.5823 26310.4
 11 10 2013  15 23  -21.0239 26080.2 -03471.7 -07.5823 26310.3
 11 10 2013  15 24  -21.0239 26080.4 -03471.8 -07.5826 26310.5
 11 10 2013  15 25  -21.0239 26080.6 -03471.9 -07.5827 26310.6
 11 10 2013  15 26  -21.0241 26080.6 -03471.9 -07.5827 26310.6
 11 10 2013  15 27  -21.0241 26080.5 -03471.8 -07.5826 26310.5
 11 10 2013  15 28  -21.0237 26080.2 -03471.6 -07.5822 26310.2
 11 10 2013  15 29  -21.0234 26079.9 -03471.5 -07.5821 26309.9
 11 10 2013  15 30  -21.0233 26079.4 -03471.3 -07.5818 26309.4
 11 10 2013  15 31  -21.0234 26079.3 -03471.2 -07.5816 26309.2
 11 10 2013  15 32  -21.0236 26079.1 -03471.2 -07.5816 26309.1
 11 10 2013  15 33  -21.0232 26079.0 -03471.0 -07.5814 26308.9
 11 10 2013  15 34  -21.0228 26078.7 -03470.9 -07.5811 26308.6
 11 10 2013  15 35  -21.0222 26078.2 -03470.7 -07.5807 26308.1
 11 10 2013  15 36  -21.0218 26077.9 -03470.6 -07.5808 26307.9
 11 10 2013  15 37  -21.0215 26077.6 -03470.6 -07.5808 26307.5
 11 10 2013  15 38  -21.0205 26077.2 -03470.5 -07.5807 26307.1
 11 10 2013  15 39  -21.0198 26077.1 -03470.7 -07.5810 26307.1
 11 10 2013  15 40  -21.0194 26077.1 -03470.8 -07.5814 26307.0
 11 10 2013  15 41  -21.0192 26076.8 -03470.8 -07.5814 26306.8
 11 10 2013  15 42  -21.0187 26076.7 -03470.8 -07.5816 26306.7
 11 10 2013  15 43  -21.0183 26076.1 -03470.7 -07.5814 26306.0
 11 10 2013  15 44  -21.0179 26075.7 -03470.7 -07.5815 26305.7
 11 10 2013  15 45  -21.0180 26075.9 -03470.9 -07.5819 26305.9
 11 10 2013  15 46  -21.0181 26075.7 -03471.0 -07.5821 26305.7
 11 10 2013  15 47  -21.0182 26075.7 -03471.1 -07.5823 26305.8
 11 10 2013  15 48  -21.0184 26075.7 -03471.1 -07.5825 26305.7
 11 10 2013  15 49  -21.0179 26075.2 -03471.0 -07.5823 26305.2
 11 10 2013  15 50  -21.0174 26074.8 -03470.9 -07.5823 26304.8
 11 10 2013  15 51  -21.0173 26074.6 -03471.0 -07.5824 26304.6
 11 10 2013  15 52  -21.0171 26074.4 -03471.1 -07.5827 26304.4
 11 10 2013  15 53  -21.0166 26074.0 -03471.1 -07.5829 26304.0
 11 10 2013  15 54  -21.0161 26073.7 -03471.1 -07.5831 26303.8
 11 10 2013  15 55  -21.0157 26073.5 -03471.2 -07.5833 26303.6
 11 10 2013  15 56  -21.0153 26073.3 -03471.3 -07.5836 26303.3
 11 10 2013  15 57  -21.0148 26073.1 -03471.5 -07.5840 26303.2
 11 10 2013  15 58  -21.0142 26072.6 -03471.6 -07.5843 26302.7
 11 10 2013  15 59  -21.0136 26072.0 -03471.6 -07.5846 26302.1
 11 10 2013  16 00  -21.0130 26071.5 -03471.8 -07.5850 26301.6
 11 10 2013  16 01  -21.0127 26071.0 -03472.0 -07.5857 26301.2
 11 10 2013  16 02  -21.0126 26070.7 -03472.2 -07.5863 26300.9
 11 10 2013  16 03  -21.0128 26070.5 -03472.6 -07.5870 26300.7
 11 10 2013  16 04  -21.0130 26069.9 -03472.7 -07.5876 26300.2
 11 10 2013  16 05  -21.0131 26069.4 -03472.8 -07.5879 26299.7
 11 10 2013  16 06  -21.0133 26069.0 -03473.0 -07.5884 26299.3
 11 10 2013  16 07  -21.0132 26068.3 -03473.0 -07.5887 26298.7
 11 10 2013  16 08  -21.0130 26067.7 -03473.1 -07.5890 26298.0
 11 10 2013  16 09  -21.0125 26067.0 -03473.2 -07.5894 26297.4
 11 10 2013  16 10  -21.0119 26066.3 -03473.2 -07.5897 26296.6
 11 10 2013  16 11  -21.0113 26065.6 -03473.4 -07.5902 26296.0
 11 10 2013  16 12  -21.0112 26065.4 -03473.7 -07.5910 26295.9
 11 10 2013  16 13  -21.0112 26065.2 -03473.9 -07.5915 26295.6
 11 10 2013  16 14  -21.0117 26065.1 -03474.2 -07.5921 26295.6
 11 10 2013  16 15  -21.0125 26065.1 -03474.5 -07.5928 26295.7
 11 10 2013  16 16  -21.0132 26065.3 -03474.8 -07.5934 26295.9
 11 10 2013  16 17  -21.0134 26065.2 -03475.0 -07.5937 26295.8
 11 10 2013  16 18  -21.0130 26064.7 -03474.9 -07.5939 26295.3
 11 10 2013  16 19  -21.0124 26064.1 -03475.0 -07.5941 26294.7
 11 10 2013  16 20  -21.0122 26063.7 -03475.2 -07.5946 26294.3
 11 10 2013  16 21  -21.0126 26063.5 -03475.5 -07.5954 26294.3
 11 10 2013  16 22  -21.0133 26063.6 -03475.8 -07.5961 26294.4
 11 10 2013  16 23  -21.0142 26063.8 -03476.2 -07.5968 26294.6
 11 10 2013  16 24  -21.0153 26063.7 -03476.3 -07.5971 26294.5
 11 10 2013  16 25  -21.0162 26063.5 -03476.4 -07.5973 26294.3
 11 10 2013  16 26  -21.0169 26063.2 -03476.4 -07.5974 26294.0
 11 10 2013  16 27  -21.0174 26062.9 -03476.4 -07.5975 26293.8
 11 10 2013  16 28  -21.0183 26062.7 -03476.5 -07.5977 26293.6
 11 10 2013  16 29  -21.0190 26062.5 -03476.6 -07.5981 26293.4
 11 10 2013  16 30  -21.0198 26062.3 -03476.7 -07.5984 26293.2
 11 10 2013  16 31  -21.0206 26062.3 -03476.9 -07.5987 26293.2
 11 10 2013  16 32  -21.0212 26062.0 -03476.9 -07.5989 26292.9
 11 10 2013  16 33  -21.0219 26061.9 -03477.0 -07.5991 26292.8
 11 10 2013  16 34  -21.0227 26061.7 -03477.1 -07.5993 26292.6
 11 10 2013  16 35  -21.0238 26061.5 -03477.1 -07.5996 26292.4
 11 10 2013  16 36  -21.0245 26061.4 -03477.2 -07.5997 26292.3
 11 10 2013  16 37  -21.0254 26061.2 -03477.3 -07.6000 26292.2
 11 10 2013  16 38  -21.0266 26061.1 -03477.4 -07.6001 26292.0
 11 10 2013  16 39  -21.0277 26060.9 -03477.5 -07.6004 26291.9
 11 10 2013  16 40  -21.0287 26060.8 -03477.5 -07.6005 26291.8
 11 10 2013  16 41  -21.0296 26060.6 -03477.5 -07.6005 26291.6
 11 10 2013  16 42  -21.0302 26060.2 -03477.4 -07.6005 26291.2
 11 10 2013  16 43  -21.0311 26059.8 -03477.4 -07.6005 26290.8
 11 10 2013  16 44  -21.0316 26059.5 -03477.3 -07.6005 26290.5
 11 10 2013  16 45  -21.0321 26059.4 -03477.4 -07.6006 26290.4
 11 10 2013  16 46  -21.0327 26059.1 -03477.4 -07.6007 26290.1
 11 10 2013  16 47  -21.0332 26058.9 -03477.3 -07.6006 26289.8
 11 10 2013  16 48  -21.0335 26058.7 -03477.3 -07.6007 26289.7
 11 10 2013  16 49  -21.0339 26058.5 -03477.3 -07.6007 26289.5
 11 10 2013  16 50  -21.0344 26058.3 -03477.2 -07.6006 26289.3
 11 10 2013  16 51  -21.0346 26058.2 -03477.3 -07.6007 26289.2
 11 10 2013  16 52  -21.0349 26058.2 -03477.2 -07.6007 26289.1
 11 10 2013  16 53  -21.0351 26058.0 -03477.2 -07.6007 26289.0
 11 10 2013  16 54  -21.0352 26057.8 -03477.2 -07.6007 26288.8
 11 10 2013  16 55  -21.0353 26057.6 -03477.1 -07.6006 26288.6
 11 10 2013  16 56  -21.0356 26057.5 -03477.1 -07.6007 26288.5
 11 10 2013  16 57  -21.0361 26057.4 -03477.1 -07.6007 26288.4
 11 10 2013  16 58  -21.0363 26057.4 -03477.2 -07.6008 26288.4
 11 10 2013  16 59  -21.0366 26057.3 -03477.1 -07.6006 26288.3
 11 10 2013  17 00  -21.0369 26057.1 -03477.0 -07.6005 26288.0
 11 10 2013  17 01  -21.0371 26056.7 -03476.8 -07.6002 26287.7
 11 10 2013  17 02  -21.0370 26056.1 -03476.6 -07.6000 26287.0
 11 10 2013  17 03  -21.0371 26055.8 -03476.6 -07.5999 26286.7
 11 10 2013  17 04  -21.0373 26055.4 -03476.5 -07.6000 26286.3
 11 10 2013  17 05  -21.0374 26055.0 -03476.4 -07.5999 26285.9
 11 10 2013  17 06  -21.0376 26054.8 -03476.4 -07.5999 26285.7
 11 10 2013  17 07  -21.0379 26054.6 -03476.5 -07.6001 26285.5
 11 10 2013  17 08  -21.0385 26054.3 -03476.4 -07.6001 26285.2
 11 10 2013  17 09  -21.0390 26054.3 -03476.4 -07.6000 26285.2
 11 10 2013  17 10  -21.0392 26054.0 -03476.3 -07.5998 26284.9
 11 10 2013  17 11  -21.0396 26053.9 -03476.2 -07.5997 26284.8
 11 10 2013  17 12  -21.0397 26053.8 -03476.1 -07.5996 26284.6
 11 10 2013  17 13  -21.0398 26053.5 -03476.0 -07.5994 26284.4
 11 10 2013  17 14  -21.0395 26053.0 -03475.7 -07.5990 26283.9
 11 10 2013  17 15  -21.0397 26052.7 -03475.6 -07.5988 26283.5
 11 10 2013  17 16  -21.0393 26052.3 -03475.5 -07.5986 26283.1
 11 10 2013  17 17  -21.0394 26052.2 -03475.4 -07.5985 26283.0
 11 10 2013  17 18  -21.0391 26052.2 -03475.4 -07.5984 26283.0
 11 10 2013  17 19  -21.0390 26052.0 -03475.2 -07.5981 26282.7
 11 10 2013  17 20  -21.0387 26051.6 -03475.0 -07.5977 26282.4
 11 10 2013  17 21  -21.0384 26051.3 -03474.8 -07.5975 26282.0
 11 10 2013  17 22  -21.0381 26050.7 -03474.6 -07.5972 26281.4
 11 10 2013  17 23  -21.0376 26050.2 -03474.4 -07.5968 26280.9
 11 10 2013  17 24  -21.0372 26050.1 -03474.4 -07.5968 26280.8
 11 10 2013  17 25  -21.0372 26049.9 -03474.3 -07.5967 26280.6
 11 10 2013  17 26  -21.0367 26049.3 -03474.0 -07.5963 26280.0
 11 10 2013  17 27  -21.0361 26049.2 -03474.0 -07.5964 26279.8
 11 10 2013  17 28  -21.0359 26048.8 -03474.0 -07.5963 26279.5
 11 10 2013  17 29  -21.0354 26048.5 -03473.9 -07.5962 26279.1
 11 10 2013  17 30  -21.0354 26048.4 -03473.9 -07.5962 26279.1
 11 10 2013  17 31  -21.0352 26048.3 -03473.8 -07.5962 26278.9
 11 10 2013  17 32  -21.0352 26048.3 -03473.9 -07.5964 26278.9
 11 10 2013  17 33  -21.0348 26047.3 -03473.5 -07.5958 26277.8
 11 10 2013  17 34  -21.0346 26047.1 -03473.5 -07.5958 26277.7
 11 10 2013  17 35  -21.0341 26046.6 -03473.4 -07.5957 26277.1
 11 10 2013  17 36  -21.0339 26046.9 -03473.7 -07.5962 26277.5
 11 10 2013  17 37  -21.0337 26046.9 -03473.8 -07.5965 26277.5
 11 10 2013  17 38  -21.0337 26046.7 -03473.8 -07.5966 26277.3
 11 10 2013  17 39  -21.0336 26046.3 -03473.7 -07.5965 26277.0
 11 10 2013  17 40  -21.0336 26046.2 -03473.8 -07.5967 26276.8
 11 10 2013  17 41  -21.0335 26045.7 -03473.7 -07.5966 26276.3
 11 10 2013  17 42  -21.0333 26045.2 -03473.6 -07.5965 26275.9
 11 10 2013  17 43  -21.0333 26045.0 -03473.7 -07.5967 26275.7
 11 10 2013  17 44  -21.0332 26044.7 -03473.7 -07.5969 26275.4
 11 10 2013  17 45  -21.0332 26044.7 -03473.8 -07.5972 26275.4
 11 10 2013  17 46  -21.0331 26044.5 -03473.9 -07.5974 26275.1
 11 10 2013  17 47  -21.0334 26044.2 -03473.9 -07.5975 26274.9
 11 10 2013  17 48  -21.0333 26043.9 -03473.9 -07.5975 26274.6
 11 10 2013  17 49  -21.0330 26043.6 -03473.8 -07.5976 26274.3
 11 10 2013  17 50  -21.0325 26043.2 -03473.8 -07.5976 26273.8
 11 10 2013  17 51  -21.0322 26042.9 -03473.8 -07.5978 26273.6
 11 10 2013  17 52  -21.0318 26042.6 -03473.9 -07.5979 26273.3
 11 10 2013  17 53  -21.0315 26042.4 -03473.9 -07.5981 26273.1
 11 10 2013  17 54  -21.0312 26042.0 -03473.9 -07.5982 26272.6
 11 10 2013  17 55  -21.0311 26042.0 -03474.0 -07.5984 26272.7
 11 10 2013  17 56  -21.0304 26041.7 -03474.0 -07.5984 26272.4
 11 10 2013  17 57  -21.0300 26041.7 -03474.0 -07.5986 26272.4
 11 10 2013  17 58  -21.0294 26041.5 -03474.1 -07.5987 26272.2
 11 10 2013  17 59  -21.0291 26041.3 -03474.1 -07.5987 26272.0
 11 10 2013  18 00  -21.0287 26040.8 -03473.9 -07.5986 26271.5
 11 10 2013  18 01  -21.0282 26040.4 -03473.8 -07.5985 26271.0
 11 10 2013  18 02  -21.0274 26039.9 -03473.8 -07.5985 26270.6
 11 10 2013  18 03  -21.0270 26039.6 -03473.8 -07.5985 26270.3
 11 10 2013  18 04  -21.0262 26039.2 -03473.8 -07.5987 26269.9
 11 10 2013  18 05  -21.0260 26039.1 -03473.9 -07.5990 26269.8
 11 10 2013  18 06  -21.0257 26038.9 -03474.0 -07.5993 26269.7
 11 10 2013  18 07  -21.0251 26039.0 -03474.1 -07.5994 26269.7
 11 10 2013  18 08  -21.0251 26038.7 -03474.1 -07.5995 26269.4
 11 10 2013  18 09  -21.0245 26038.4 -03474.1 -07.5996 26269.2
 11 10 2013  18 10  -21.0240 26038.2 -03474.1 -07.5998 26269.0
 11 10 2013  18 11  -21.0234 26037.9 -03474.2 -07.6000 26268.6
 11 10 2013  18 12  -21.0226 26037.6 -03474.2 -07.6002 26268.4
 11 10 2013  18 13  -21.0220 26037.4 -03474.3 -07.6004 26268.2
 11 10 2013  18 14  -21.0215 26037.3 -03474.5 -07.6008 26268.1
 11 10 2013  18 15  -21.0210 26037.0 -03474.5 -07.6009 26267.8
 11 10 2013  18 16  -21.0206 26037.0 -03474.7 -07.6013 26267.8
 11 10 2013  18 17  -21.0199 26037.1 -03474.8 -07.6016 26268.0
 11 10 2013  18 18  -21.0195 26037.1 -03475.0 -07.6020 26267.9
 11 10 2013  18 19  -21.0190 26036.9 -03475.1 -07.6022 26267.8
 11 10 2013  18 20  -21.0185 26037.0 -03475.3 -07.6026 26267.9
 11 10 2013  18 21  -21.0183 26037.1 -03475.5 -07.6030 26268.1
 11 10 2013  18 22  -21.0180 26037.4 -03475.7 -07.6033 26268.4
 11 10 2013  18 23  -21.0177 26037.4 -03475.7 -07.6034 26268.4
 11 10 2013  18 24  -21.0175 26037.5 -03475.9 -07.6037 26268.5
 11 10 2013  18 25  -21.0173 26037.4 -03475.9 -07.6038 26268.3
 11 10 2013  18 26  -21.0170 26037.0 -03475.8 -07.6036 26267.9
 11 10 2013  18 27  -21.0172 26036.9 -03475.8 -07.6037 26267.8
 11 10 2013  18 28  -21.0175 26036.8 -03475.8 -07.6039 26267.8
 11 10 2013  18 29  -21.0178 26036.6 -03475.8 -07.6038 26267.5
 11 10 2013  18 30  -21.0186 26036.5 -03475.8 -07.6038 26267.5
 11 10 2013  18 31  -21.0190 26036.3 -03475.7 -07.6037 26267.2
 11 10 2013  18 32  -21.0193 26035.9 -03475.6 -07.6036 26266.9
 11 10 2013  18 33  -21.0195 26035.6 -03475.5 -07.6035 26266.5
 11 10 2013  18 34  -21.0195 26035.2 -03475.4 -07.6034 26266.1
 11 10 2013  18 35  -21.0198 26034.8 -03475.4 -07.6034 26265.8
 11 10 2013  18 36  -21.0200 26034.5 -03475.4 -07.6035 26265.4
 11 10 2013  18 37  -21.0200 26033.9 -03475.2 -07.6034 26264.9
 11 10 2013  18 38  -21.0202 26033.6 -03475.2 -07.6034 26264.6
 11 10 2013  18 39  -21.0204 26033.5 -03475.3 -07.6035 26264.5
 11 10 2013  18 40  -21.0206 26033.5 -03475.4 -07.6038 26264.4
 11 10 2013  18 41  -21.0207 26033.3 -03475.4 -07.6039 26264.3
 11 10 2013  18 42  -21.0208 26033.3 -03475.4 -07.6040 26264.2
 11 10 2013  18 43  -21.0208 26033.1 -03475.4 -07.6041 26264.1
 11 10 2013  18 44  -21.0208 26032.9 -03475.4 -07.6041 26263.9
 11 10 2013  18 45  -21.0207 26032.7 -03475.4 -07.6041 26263.6
 11 10 2013  18 46  -21.0207 26032.3 -03475.4 -07.6041 26263.3
 11 10 2013  18 47  -21.0211 26032.1 -03475.4 -07.6042 26263.1
 11 10 2013  18 48  -21.0214 26032.0 -03475.4 -07.6042 26263.0
 11 10 2013  18 49  -21.0217 26031.8 -03475.4 -07.6042 26262.8
 11 10 2013  18 50  -21.0216 26031.5 -03475.3 -07.6041 26262.4
 11 10 2013  18 51  -21.0214 26031.1 -03475.2 -07.6041 26262.1
 11 10 2013  18 52  -21.0212 26030.9 -03475.2 -07.6041 26261.8
 11 10 2013  18 53  -21.0212 26030.8 -03475.2 -07.6043 26261.8
 11 10 2013  18 54  -21.0211 26030.7 -03475.3 -07.6045 26261.6
 11 10 2013  18 55  -21.0210 26030.6 -03475.4 -07.6046 26261.6
 11 10 2013  18 56  -21.0209 26030.5 -03475.4 -07.6048 26261.5
 11 10 2013  18 57  -21.0208 26030.4 -03475.4 -07.6049 26261.4
 11 10 2013  18 58  -21.0209 26030.2 -03475.4 -07.6049 26261.2
 11 10 2013  18 59  -21.0210 26029.9 -03475.4 -07.6050 26260.9
 11 10 2013  19 00  -21.0212 26029.5 -03475.4 -07.6049 26260.5
 11 10 2013  19 01  -21.0213 26029.2 -03475.3 -07.6048 26260.1
 11 10 2013  19 02  -21.0214 26028.7 -03475.2 -07.6048 26259.6
 11 10 2013  19 03  -21.0217 26028.2 -03475.1 -07.6047 26259.1
 11 10 2013  19 04  -21.0220 26027.9 -03475.0 -07.6046 26258.8
 11 10 2013  19 05  -21.0224 26027.5 -03474.9 -07.6046 26258.4
 11 10 2013  19 06  -21.0228 26027.0 -03474.8 -07.6044 26258.0
 11 10 2013  19 07  -21.0229 26026.5 -03474.7 -07.6043 26257.5
 11 10 2013  19 08  -21.0230 26026.2 -03474.6 -07.6042 26257.1
 11 10 2013  19 09  -21.0229 26025.7 -03474.5 -07.6042 26256.7
 11 10 2013  19 10  -21.0230 26025.5 -03474.5 -07.6042 26256.4
 11 10 2013  19 11  -21.0229 26025.2 -03474.4 -07.6041 26256.1
 11 10 2013  19 12  -21.0229 26025.0 -03474.4 -07.6042 26255.9
 11 10 2013  19 13  -21.0226 26024.7 -03474.5 -07.6044 26255.6
 11 10 2013  19 14  -21.0226 26024.5 -03474.5 -07.6045 26255.4
 11 10 2013  19 15  -21.0224 26024.4 -03474.6 -07.6047 26255.3
 11 10 2013  19 16  -21.0223 26024.4 -03474.8 -07.6051 26255.3
 11 10 2013  19 17  -21.0221 26024.4 -03474.9 -07.6053 26255.3
 11 10 2013  19 18  -21.0218 26024.4 -03475.0 -07.6055 26255.4
 11 10 2013  19 19  -21.0215 26024.3 -03475.1 -07.6059 26255.3
 11 10 2013  19 20  -21.0210 26024.3 -03475.2 -07.6062 26255.3
 11 10 2013  19 21  -21.0206 26024.2 -03475.4 -07.6065 26255.3
 11 10 2013  19 22  -21.0202 26024.3 -03475.5 -07.6068 26255.3
 11 10 2013  19 23  -21.0200 26024.3 -03475.6 -07.6071 26255.3
 11 10 2013  19 24  -21.0198 26024.1 -03475.6 -07.6071 26255.2
 11 10 2013  19 25  -21.0196 26024.0 -03475.7 -07.6073 26255.1
 11 10 2013  19 26  -21.0195 26024.0 -03475.9 -07.6076 26255.1
 11 10 2013  19 27  -21.0198 26024.0 -03475.9 -07.6077 26255.1
 11 10 2013  19 28  -21.0200 26023.8 -03475.9 -07.6078 26254.9
 11 10 2013  19 29  -21.0202 26023.6 -03475.9 -07.6078 26254.7
 11 10 2013  19 30  -21.0205 26023.4 -03475.9 -07.6078 26254.5
 11 10 2013  19 31  -21.0208 26023.0 -03475.8 -07.6077 26254.0
 11 10 2013  19 32  -21.0209 26022.7 -03475.8 -07.6079 26253.8
 11 10 2013  19 33  -21.0211 26022.5 -03475.8 -07.6080 26253.6
 11 10 2013  19 34  -21.0212 26022.3 -03476.0 -07.6083 26253.4
 11 10 2013  19 35  -21.0213 26022.1 -03476.1 -07.6086 26253.3
 11 10 2013  19 36  -21.0214 26022.0 -03476.2 -07.6089 26253.1
 11 10 2013  19 37  -21.0215 26021.8 -03476.3 -07.6092 26253.0
 11 10 2013  19 38  -21.0215 26021.7 -03476.5 -07.6097 26252.9
 11 10 2013  19 39  -21.0213 26021.6 -03476.7 -07.6100 26252.8
 11 10 2013  19 40  -21.0213 26021.5 -03476.9 -07.6105 26252.8
 11 10 2013  19 41  -21.0212 26021.5 -03477.1 -07.6109 26252.7
 11 10 2013  19 42  -21.0210 26021.3 -03477.2 -07.6112 26252.6
 11 10 2013  19 43  -21.0208 26021.3 -03477.4 -07.6116 26252.6
 11 10 2013  19 44  -21.0208 26021.2 -03477.6 -07.6121 26252.6
 11 10 2013  19 45  -21.0206 26021.1 -03477.7 -07.6124 26252.5
 11 10 2013  19 46  -21.0205 26021.0 -03477.9 -07.6129 26252.4
 11 10 2013  19 47  -21.0204 26021.0 -03478.1 -07.6132 26252.4
 11 10 2013  19 48  -21.0205 26021.0 -03478.2 -07.6136 26252.4
 11 10 2013  19 49  -21.0204 26021.0 -03478.4 -07.6140 26252.4
 11 10 2013  19 50  -21.0203 26020.9 -03478.6 -07.6143 26252.4
 11 10 2013  19 51  -21.0202 26020.8 -03478.7 -07.6147 26252.3
 11 10 2013  19 52  -21.0202 26020.8 -03478.9 -07.6151 26252.3
 11 10 2013  19 53  -21.0202 26020.7 -03479.1 -07.6155 26252.3
 11 10 2013  19 54  -21.0203 26020.6 -03479.3 -07.6159 26252.2
 11 10 2013  19 55  -21.0202 26020.6 -03479.4 -07.6163 26252.2
 11 10 2013  19 56  -21.0201 26020.6 -03479.6 -07.6167 26252.2
 11 10 2013  19 57  -21.0201 26020.6 -03479.8 -07.6171 26252.2
 11 10 2013  19 58  -21.0200 26020.6 -03480.0 -07.6175 26252.3
 11 10 2013  19 59  -21.0200 26020.6 -03480.2 -07.6179 26252.3
 11 10 2013  20 00  -21.0200 26020.5 -03480.3 -07.6182 26252.3
 11 10 2013  20 01  -21.0200 26020.5 -03480.5 -07.6186 26252.2
 11 10 2013  20 02  -21.0200 26020.5 -03480.6 -07.6189 26252.2
 11 10 2013  20 03  -21.0200 26020.5 -03480.8 -07.6192 26252.2
 11 10 2013  20 04  -21.0199 26020.4 -03480.9 -07.6195 26252.2
 11 10 2013  20 05  -21.0198 26020.3 -03481.0 -07.6198 26252.1
 11 10 2013  20 06  -21.0199 26020.2 -03481.1 -07.6200 26252.0
 11 10 2013  20 07  -21.0198 26020.2 -03481.3 -07.6204 26252.0
 11 10 2013  20 08  -21.0198 26020.2 -03481.4 -07.6207 26252.1
 11 10 2013  20 09  -21.0197 26020.3 -03481.6 -07.6210 26252.2
 11 10 2013  20 10  -21.0198 26020.2 -03481.7 -07.6214 26252.1
 11 10 2013  20 11  -21.0198 26020.1 -03481.9 -07.6217 26252.0
 11 10 2013  20 12  -21.0198 26019.9 -03482.0 -07.6220 26251.8
 11 10 2013  20 13  -21.0199 26019.9 -03482.1 -07.6223 26251.9
 11 10 2013  20 14  -21.0198 26019.9 -03482.3 -07.6226 26251.9
 11 10 2013  20 15  -21.0197 26019.9 -03482.4 -07.6229 26251.9
 11 10 2013  20 16  -21.0198 26019.8 -03482.4 -07.6230 26251.8
 11 10 2013  20 17  -21.0199 26019.7 -03482.6 -07.6233 26251.7
 11 10 2013  20 18  -21.0199 26019.7 -03482.7 -07.6236 26251.8
 11 10 2013  20 19  -21.0200 26019.6 -03482.8 -07.6239 26251.6
 11 10 2013  20 20  -21.0200 26019.4 -03482.9 -07.6242 26251.5
 11 10 2013  20 21  -21.0201 26019.3 -03483.0 -07.6245 26251.4
 11 10 2013  20 22  -21.0202 26019.3 -03483.2 -07.6248 26251.4
 11 10 2013  20 23  -21.0202 26019.2 -03483.4 -07.6252 26251.3
 11 10 2013  20 24  -21.0201 26019.0 -03483.4 -07.6254 26251.1
 11 10 2013  20 25  -21.0208 26018.8 -03483.5 -07.6255 26251.0
 11 10 2013  20 26  -21.0223 26018.5 -03483.5 -07.6258 26250.6
 11 10 2013  20 27  -21.0225 26018.4 -03483.7 -07.6262 26250.5
 11 10 2013  20 28  -21.0225 26018.3 -03483.9 -07.6266 26250.5
 11 10 2013  20 29  -21.0225 26018.1 -03484.0 -07.6269 26250.3
 11 10 2013  20 30  -21.0222 26018.1 -03484.2 -07.6273 26250.4
 11 10 2013  20 31  -21.0209 26018.4 -03484.4 -07.6277 26250.7
 11 10 2013  20 32  -21.0196 26018.6 -03484.7 -07.6283 26251.0
 11 10 2013  20 33  -21.0195 26018.6 -03484.8 -07.6286 26251.0
 11 10 2013  20 34  -21.0195 26018.5 -03484.9 -07.6288 26250.8
 11 10 2013  20 35  -21.0194 26018.4 -03485.0 -07.6290 26250.7
 11 10 2013  20 36  -21.0195 26018.4 -03485.1 -07.6293 26250.7
 11 10 2013  20 37  -21.0194 26018.4 -03485.3 -07.6295 26250.8
 11 10 2013  20 38  -21.0193 26018.3 -03485.4 -07.6298 26250.7
 11 10 2013  20 39  -21.0193 26018.2 -03485.4 -07.6300 26250.6
 11 10 2013  20 40  -21.0193 26018.2 -03485.6 -07.6302 26250.6
 11 10 2013  20 41  -21.0191 26018.2 -03485.7 -07.6305 26250.7
 11 10 2013  20 42  -21.0190 26018.3 -03485.8 -07.6308 26250.8
 11 10 2013  20 43  -21.0190 26018.2 -03485.9 -07.6310 26250.7
 11 10 2013  20 44  -21.0189 26018.2 -03486.0 -07.6312 26250.7
 11 10 2013  20 45  -21.0187 26018.1 -03486.1 -07.6314 26250.6
 11 10 2013  20 46  -21.0186 26018.1 -03486.1 -07.6315 26250.6
 11 10 2013  20 47  -21.0185 26018.1 -03486.2 -07.6317 26250.6
 11 10 2013  20 48  -21.0184 26018.0 -03486.3 -07.6319 26250.6
 11 10 2013  20 49  -21.0183 26018.0 -03486.4 -07.6321 26250.5
 11 10 2013  20 50  -21.0182 26018.0 -03486.5 -07.6323 26250.6
 11 10 2013  20 51  -21.0181 26018.1 -03486.7 -07.6326 26250.7
 11 10 2013  20 52  -21.0181 26018.1 -03486.8 -07.6329 26250.7
 11 10 2013  20 53  -21.0180 26018.1 -03486.9 -07.6332 26250.7
 11 10 2013  20 54  -21.0180 26018.1 -03487.0 -07.6334 26250.8
 11 10 2013  20 55  -21.0180 26018.2 -03487.1 -07.6336 26250.8
 11 10 2013  20 56  -21.0182 26018.3 -03487.3 -07.6340 26250.9
 11 10 2013  20 57  -21.0184 26018.2 -03487.3 -07.6341 26250.9
 11 10 2013  20 58  -21.0183 26018.2 -03487.4 -07.6342 26250.9
 11 10 2013  20 59  -21.0185 26018.2 -03487.7 -07.6348 26250.9
 11 10 2013  21 00  -21.0186 26018.2 -03487.8 -07.6351 26250.9
 11 10 2013  21 01  -21.0186 26018.1 -03487.9 -07.6354 26250.9
 11 10 2013  21 02  -21.0188 26018.0 -03488.0 -07.6357 26250.8
 11 10 2013  21 03  -21.0188 26018.1 -03488.2 -07.6359 26250.9
 11 10 2013  21 04  -21.0186 26018.2 -03488.4 -07.6364 26251.0
 11 10 2013  21 05  -21.0186 26018.3 -03488.6 -07.6368 26251.1
 11 10 2013  21 06  -21.0184 26018.4 -03488.7 -07.6371 26251.2
 11 10 2013  21 07  -21.0182 26018.4 -03488.9 -07.6374 26251.3
 11 10 2013  21 08  -21.0181 26018.6 -03489.0 -07.6376 26251.4
 11 10 2013  21 09  -21.0182 26018.5 -03489.2 -07.6380 26251.4
 11 10 2013  21 10  -21.0182 26018.4 -03489.2 -07.6381 26251.3
 11 10 2013  21 11  -21.0182 26018.3 -03489.3 -07.6382 26251.2
 11 10 2013  21 12  -21.0182 26018.2 -03489.3 -07.6384 26251.1
 11 10 2013  21 13  -21.0182 26018.1 -03489.4 -07.6385 26251.0
 11 10 2013  21 14  -21.0184 26017.9 -03489.4 -07.6386 26250.8
 11 10 2013  21 15  -21.0187 26017.7 -03489.4 -07.6387 26250.7
 11 10 2013  21 16  -21.0188 26017.6 -03489.4 -07.6388 26250.5
 11 10 2013  21 17  -21.0189 26017.4 -03489.4 -07.6389 26250.4
 11 10 2013  21 18  -21.0192 26017.4 -03489.5 -07.6390 26250.3
 11 10 2013  21 19  -21.0195 26017.3 -03489.5 -07.6391 26250.2
 11 10 2013  21 20  -21.0197 26017.3 -03489.5 -07.6391 26250.2
 11 10 2013  21 21  -21.0200 26017.3 -03489.7 -07.6395 26250.3
 11 10 2013  21 22  -21.0204 26017.3 -03489.8 -07.6398 26250.3
 11 10 2013  21 23  -21.0208 26017.3 -03489.9 -07.6400 26250.3
 11 10 2013  21 24  -21.0210 26017.4 -03490.0 -07.6402 26250.4
 11 10 2013  21 25  -21.0212 26017.4 -03490.1 -07.6404 26250.4
 11 10 2013  21 26  -21.0214 26017.4 -03490.2 -07.6406 26250.5
 11 10 2013  21 27  -21.0215 26017.4 -03490.3 -07.6408 26250.5
 11 10 2013  21 28  -21.0217 26017.4 -03490.4 -07.6409 26250.5
 11 10 2013  21 29  -21.0218 26017.4 -03490.4 -07.6410 26250.5
 11 10 2013  21 30  -21.0220 26017.4 -03490.5 -07.6412 26250.5
 11 10 2013  21 31  -21.0221 26017.3 -03490.6 -07.6413 26250.4
 11 10 2013  21 32  -21.0223 26017.3 -03490.6 -07.6414 26250.4
 11 10 2013  21 33  -21.0224 26017.2 -03490.6 -07.6415 26250.3
 11 10 2013  21 34  -21.0226 26017.1 -03490.7 -07.6416 26250.2
 11 10 2013  21 35  -21.0226 26017.2 -03490.7 -07.6417 26250.3
 11 10 2013  21 36  -21.0228 26017.2 -03490.8 -07.6419 26250.3
 11 10 2013  21 37  -21.0229 26017.3 -03490.9 -07.6421 26250.5
 11 10 2013  21 38  -21.0232 26017.4 -03491.0 -07.6423 26250.5
 11 10 2013  21 39  -21.0233 26017.4 -03491.1 -07.6425 26250.5
 11 10 2013  21 40  -21.0235 26017.3 -03491.1 -07.6426 26250.5
 11 10 2013  21 41  -21.0235 26017.3 -03491.2 -07.6427 26250.5
 11 10 2013  21 42  -21.0236 26017.2 -03491.2 -07.6427 26250.4
 11 10 2013  21 43  -21.0236 26017.4 -03491.3 -07.6429 26250.6
 11 10 2013  21 44  -21.0235 26017.5 -03491.4 -07.6430 26250.7
 11 10 2013  21 45  -21.0236 26017.8 -03491.6 -07.6433 26251.0
 11 10 2013  21 46  -21.0236 26017.9 -03491.7 -07.6437 26251.2
 11 10 2013  21 47  -21.0236 26018.1 -03491.9 -07.6439 26251.4
 11 10 2013  21 48  -21.0235 26018.3 -03492.0 -07.6441 26251.6
 11 10 2013  21 49  -21.0235 26018.3 -03492.1 -07.6443 26251.6
 11 10 2013  21 50  -21.0235 26018.3 -03492.1 -07.6443 26251.6
 11 10 2013  21 51  -21.0236 26018.3 -03492.1 -07.6443 26251.6
 11 10 2013  21 52  -21.0237 26018.3 -03492.1 -07.6444 26251.6
 11 10 2013  21 53  -21.0239 26018.2 -03492.1 -07.6443 26251.5
 11 10 2013  21 54  -21.0239 26018.1 -03492.1 -07.6444 26251.5
 11 10 2013  21 55  -21.0241 26018.0 -03492.1 -07.6443 26251.3
 11 10 2013  21 56  -21.0243 26018.0 -03492.0 -07.6443 26251.3
 11 10 2013  21 57  -21.0245 26017.9 -03492.0 -07.6443 26251.2
 11 10 2013  21 58  -21.0246 26017.7 -03491.9 -07.6442 26251.0
 11 10 2013  21 59  -21.0248 26017.6 -03491.9 -07.6441 26250.8
 11 10 2013  22 00  -21.0250 26017.5 -03491.9 -07.6441 26250.8
 11 10 2013  22 01  -21.0251 26017.5 -03491.9 -07.6442 26250.8
 11 10 2013  22 02  -21.0254 26017.5 -03491.9 -07.6442 26250.8
 11 10 2013  22 03  -21.0258 26017.7 -03492.0 -07.6444 26251.0
 11 10 2013  22 04  -21.0260 26017.8 -03492.1 -07.6444 26251.1
 11 10 2013  22 05  -21.0263 26017.9 -03492.1 -07.6445 26251.2
 11 10 2013  22 06  -21.0264 26017.9 -03492.1 -07.6445 26251.2
 11 10 2013  22 07  -21.0264 26017.9 -03492.1 -07.6445 26251.2
 11 10 2013  22 08  -21.0265 26017.9 -03492.1 -07.6445 26251.2
 11 10 2013  22 09  -21.0265 26017.8 -03492.0 -07.6443 26251.1
 11 10 2013  22 10  -21.0265 26017.7 -03492.0 -07.6443 26251.0
 11 10 2013  22 11  -21.0264 26017.7 -03491.9 -07.6442 26251.0
 11 10 2013  22 12  -21.0264 26017.6 -03491.9 -07.6442 26250.9
 11 10 2013  22 13  -21.0261 26017.5 -03491.9 -07.6441 26250.8
 11 10 2013  22 14  -21.0260 26017.4 -03491.8 -07.6441 26250.7
 11 10 2013  22 15  -21.0258 26017.4 -03491.8 -07.6441 26250.7
 11 10 2013  22 16  -21.0256 26017.4 -03491.9 -07.6441 26250.6
 11 10 2013  22 17  -21.0255 26017.3 -03491.9 -07.6441 26250.6
 11 10 2013  22 18  -21.0255 26017.2 -03491.8 -07.6441 26250.5
 11 10 2013  22 19  -21.0255 26017.2 -03491.9 -07.6442 26250.5
 11 10 2013  22 20  -21.0255 26017.1 -03491.9 -07.6442 26250.4
 11 10 2013  22 21  -21.0256 26017.1 -03491.9 -07.6443 26250.4
 11 10 2013  22 22  -21.0255 26017.0 -03491.9 -07.6444 26250.3
 11 10 2013  22 23  -21.0254 26017.0 -03492.0 -07.6445 26250.3
 11 10 2013  22 24  -21.0255 26017.0 -03492.1 -07.6446 26250.3
 11 10 2013  22 25  -21.0255 26017.0 -03492.1 -07.6448 26250.4
 11 10 2013  22 26  -21.0254 26017.0 -03492.1 -07.6448 26250.4
 11 10 2013  22 27  -21.0255 26017.1 -03492.2 -07.6450 26250.4
 11 10 2013  22 28  -21.0255 26017.1 -03492.3 -07.6451 26250.5
 11 10 2013  22 29  -21.0255 26017.2 -03492.3 -07.6452 26250.5
 11 10 2013  22 30  -21.0255 26017.3 -03492.4 -07.6453 26250.6
 11 10 2013  22 31  -21.0253 26017.4 -03492.5 -07.6455 26250.8
 11 10 2013  22 32  -21.0251 26017.4 -03492.5 -07.6456 26250.7
 11 10 2013  22 33  -21.0251 26017.4 -03492.5 -07.6456 26250.7
 11 10 2013  22 34  -21.0250 26017.5 -03492.6 -07.6458 26250.9
 11 10 2013  22 35  -21.0249 26017.6 -03492.7 -07.6458 26251.0
 11 10 2013  22 36  -21.0250 26017.5 -03492.7 -07.6459 26250.9
 11 10 2013  22 37  -21.0251 26017.4 -03492.7 -07.6459 26250.8
 11 10 2013  22 38  -21.0250 26017.5 -03492.8 -07.6461 26250.9
 11 10 2013  22 39  -21.0251 26017.5 -03492.8 -07.6461 26250.9
 11 10 2013  22 40  -21.0250 26017.5 -03492.9 -07.6463 26250.9
 11 10 2013  22 41  -21.0250 26017.4 -03492.9 -07.6463 26250.9
 11 10 2013  22 42  -21.0250 26017.5 -03492.9 -07.6464 26250.9
 11 10 2013  22 43  -21.0250 26017.6 -03493.0 -07.6465 26251.0
 11 10 2013  22 44  -21.0249 26017.6 -03493.0 -07.6466 26251.0
 11 10 2013  22 45  -21.0248 26017.6 -03493.0 -07.6466 26251.0
 11 10 2013  22 46  -21.0247 26017.6 -03493.1 -07.6467 26251.0
 11 10 2013  22 47  -21.0246 26017.6 -03493.1 -07.6467 26251.0
 11 10 2013  22 48  -21.0245 26017.5 -03493.1 -07.6468 26250.9
 11 10 2013  22 49  -21.0243 26017.5 -03493.1 -07.6469 26250.9
 11 10 2013  22 50  -21.0241 26017.4 -03493.1 -07.6468 26250.8
 11 10 2013  22 51  -21.0237 26017.4 -03493.1 -07.6468 26250.8
 11 10 2013  22 52  -21.0234 26017.3 -03493.1 -07.6468 26250.7
 11 10 2013  22 53  -21.0232 26017.4 -03493.2 -07.6469 26250.8
 11 10 2013  22 54  -21.0230 26017.4 -03493.2 -07.6471 26250.9
 11 10 2013  22 55  -21.0228 26017.4 -03493.2 -07.6471 26250.9
 11 10 2013  22 56  -21.0227 26017.5 -03493.3 -07.6472 26251.0
 11 10 2013  22 57  -21.0225 26017.4 -03493.3 -07.6472 26250.9
 11 10 2013  22 58  -21.0224 26017.5 -03493.4 -07.6474 26250.9
 11 10 2013  22 59  -21.0222 26017.5 -03493.4 -07.6474 26251.0
 11 10 2013  23 00  -21.0219 26017.5 -03493.5 -07.6475 26251.0
 11 10 2013  23 01  -21.0217 26017.4 -03493.4 -07.6475 26250.9
 11 10 2013  23 02  -21.0217 26017.5 -03493.5 -07.6476 26251.0
 11 10 2013  23 03  -21.0216 26017.5 -03493.5 -07.6476 26251.0
 11 10 2013  23 04  -21.0216 26017.6 -03493.6 -07.6478 26251.1
 11 10 2013  23 05  -21.0214 26017.5 -03493.5 -07.6477 26251.0
 11 10 2013  23 06  -21.0213 26017.5 -03493.5 -07.6477 26251.0
 11 10 2013  23 07  -21.0210 26017.7 -03493.6 -07.6478 26251.2
 11 10 2013  23 08  -21.0207 26017.9 -03493.7 -07.6480 26251.4
 11 10 2013  23 09  -21.0205 26017.9 -03493.7 -07.6480 26251.4
 11 10 2013  23 10  -21.0205 26017.9 -03493.7 -07.6480 26251.4
 11 10 2013  23 11  -21.0203 26017.9 -03493.7 -07.6479 26251.4
 11 10 2013  23 12  -21.0203 26018.1 -03493.8 -07.6481 26251.6
 11 10 2013  23 13  -21.0201 26018.1 -03493.8 -07.6480 26251.6
 11 10 2013  23 14  -21.0200 26018.1 -03493.8 -07.6480 26251.7
 11 10 2013  23 15  -21.0200 26018.1 -03493.7 -07.6480 26251.7
 11 10 2013  23 16  -21.0199 26018.2 -03493.8 -07.6480 26251.7
 11 10 2013  23 17  -21.0198 26018.3 -03493.8 -07.6480 26251.8
 11 10 2013  23 18  -21.0196 26018.4 -03493.8 -07.6480 26251.9
 11 10 2013  23 19  -21.0196 26018.4 -03493.8 -07.6480 26251.9
 11 10 2013  23 20  -21.0194 26018.5 -03493.8 -07.6480 26252.0
 11 10 2013  23 21  -21.0191 26018.5 -03493.8 -07.6480 26252.0
 11 10 2013  23 22  -21.0190 26018.5 -03493.8 -07.6480 26252.0
 11 10 2013  23 23  -21.0189 26018.5 -03493.8 -07.6480 26252.0
 11 10 2013  23 24  -21.0188 26018.5 -03493.8 -07.6479 26252.0
 11 10 2013  23 25  -21.0187 26018.4 -03493.7 -07.6478 26252.0
 11 10 2013  23 26  -21.0187 26018.4 -03493.7 -07.6479 26252.0
 11 10 2013  23 27  -21.0185 26018.4 -03493.7 -07.6478 26251.9
 11 10 2013  23 28  -21.0184 26018.4 -03493.7 -07.6477 26251.9
 11 10 2013  23 29  -21.0183 26018.5 -03493.7 -07.6477 26252.0
 11 10 2013  23 30  -21.0182 26018.6 -03493.7 -07.6478 26252.1
 11 10 2013  23 31  -21.0181 26018.6 -03493.7 -07.6478 26252.2
 11 10 2013  23 32  -21.0180 26018.7 -03493.8 -07.6479 26252.3
 11 10 2013  23 33  -21.0179 26018.9 -03493.8 -07.6479 26252.4
 11 10 2013  23 34  -21.0179 26019.0 -03493.9 -07.6480 26252.5
 11 10 2013  23 35  -21.0179 26019.1 -03493.9 -07.6481 26252.6
 11 10 2013  23 36  -21.0178 26019.2 -03494.0 -07.6482 26252.8
 11 10 2013  23 37  -21.0176 26019.3 -03494.0 -07.6482 26252.9
 11 10 2013  23 38  -21.0176 26019.4 -03494.0 -07.6482 26252.9
 11 10 2013  23 39  -21.0175 26019.4 -03494.0 -07.6482 26252.9
 11 10 2013  23 40  -21.0173 26019.4 -03494.0 -07.6482 26253.0
 11 10 2013  23 41  -21.0173 26019.5 -03494.0 -07.6482 26253.0
 11 10 2013  23 42  -21.0172 26019.5 -03494.0 -07.6482 26253.0
 11 10 2013  23 43  -21.0171 26019.5 -03494.0 -07.6482 26253.1
 11 10 2013  23 44  -21.0171 26019.7 -03494.1 -07.6483 26253.2
 11 10 2013  23 45  -21.0170 26019.7 -03494.2 -07.6484 26253.3
 11 10 2013  23 46  -21.0170 26019.8 -03494.2 -07.6485 26253.3
 11 10 2013  23 47  -21.0168 26019.8 -03494.2 -07.6485 26253.4
 11 10 2013  23 48  -21.0166 26019.8 -03494.2 -07.6484 26253.4
 11 10 2013  23 49  -21.0166 26019.8 -03494.1 -07.6483 26253.4
 11 10 2013  23 50  -21.0164 26019.7 -03494.1 -07.6483 26253.3
 11 10 2013  23 51  -21.0164 26019.7 -03494.1 -07.6483 26253.2
 11 10 2013  23 52  -21.0164 26019.5 -03494.1 -07.6483 26253.1
 11 10 2013  23 53  -21.0163 26019.4 -03494.0 -07.6482 26253.0
 11 10 2013  23 54  -21.0161 26019.4 -03494.0 -07.6482 26252.9
 11 10 2013  23 55  -21.0158 26019.6 -03494.1 -07.6483 26253.1
 11 10 2013  23 56  -21.0157 26019.3 -03494.0 -07.6481 26252.8
 11 10 2013  23 57  -21.0155 26019.4 -03494.0 -07.6483 26253.0
