SAO LUIS EMBRACE-03 <223> 1 Min. Reported data

 DD MM YYYY  HH MM   D(Deg)  H(nT)   Z(nT)   I(Deg)   F(nT)

 11 08 2013  00 00  -21.0217 26038.1 -03471.8 -07.5946 26268.6
 11 08 2013  00 01  -21.0214 26038.1 -03471.7 -07.5946 26268.5
 11 08 2013  00 02  -21.0212 26038.1 -03471.8 -07.5947 26268.6
 11 08 2013  00 03  -21.0209 26038.2 -03471.9 -07.5950 26268.7
 11 08 2013  00 04  -21.0206 26038.5 -03472.1 -07.5953 26268.9
 11 08 2013  00 05  -21.0204 26038.6 -03472.3 -07.5956 26269.1
 11 08 2013  00 06  -21.0202 26038.8 -03472.4 -07.5958 26269.3
 11 08 2013  00 07  -21.0201 26038.8 -03472.4 -07.5959 26269.3
 11 08 2013  00 08  -21.0199 26038.8 -03472.5 -07.5960 26269.3
 11 08 2013  00 09  -21.0197 26038.9 -03472.6 -07.5962 26269.4
 11 08 2013  00 10  -21.0195 26039.0 -03472.6 -07.5963 26269.6
 11 08 2013  00 11  -21.0193 26039.0 -03472.7 -07.5964 26269.5
 11 08 2013  00 12  -21.0191 26039.0 -03472.6 -07.5963 26269.5
 11 08 2013  00 13  -21.0190 26038.9 -03472.6 -07.5963 26269.5
 11 08 2013  00 14  -21.0188 26039.0 -03472.7 -07.5964 26269.5
 11 08 2013  00 15  -21.0189 26039.1 -03472.8 -07.5966 26269.7
 11 08 2013  00 16  -21.0189 26039.2 -03472.9 -07.5968 26269.8
 11 08 2013  00 17  -21.0190 26039.3 -03472.9 -07.5968 26269.9
 11 08 2013  00 18  -21.0191 26039.2 -03472.9 -07.5968 26269.8
 11 08 2013  00 19  -21.0194 26039.1 -03472.9 -07.5968 26269.7
 11 08 2013  00 20  -21.0197 26038.8 -03472.7 -07.5966 26269.4
 11 08 2013  00 21  -21.0204 26038.2 -03472.5 -07.5961 26268.7
 11 08 2013  00 22  -21.0210 26037.6 -03472.1 -07.5956 26268.1
 11 08 2013  00 23  -21.0212 26037.2 -03471.9 -07.5952 26267.7
 11 08 2013  00 24  -21.0211 26037.1 -03471.8 -07.5951 26267.6
 11 08 2013  00 25  -21.0209 26037.0 -03471.8 -07.5951 26267.5
 11 08 2013  00 26  -21.0207 26037.1 -03471.9 -07.5952 26267.6
 11 08 2013  00 27  -21.0204 26037.3 -03472.0 -07.5954 26267.8
 11 08 2013  00 28  -21.0200 26037.5 -03472.1 -07.5956 26267.9
 11 08 2013  00 29  -21.0197 26037.6 -03472.2 -07.5958 26268.1
 11 08 2013  00 30  -21.0196 26037.6 -03472.3 -07.5960 26268.2
 11 08 2013  00 31  -21.0196 26037.7 -03472.3 -07.5960 26268.2
 11 08 2013  00 32  -21.0196 26037.6 -03472.3 -07.5961 26268.1
 11 08 2013  00 33  -21.0197 26037.6 -03472.4 -07.5961 26268.1
 11 08 2013  00 34  -21.0197 26037.7 -03472.4 -07.5962 26268.2
 11 08 2013  00 35  -21.0196 26037.6 -03472.4 -07.5963 26268.2
 11 08 2013  00 36  -21.0197 26037.5 -03472.4 -07.5963 26268.1
 11 08 2013  00 37  -21.0200 26037.4 -03472.4 -07.5962 26267.9
 11 08 2013  00 38  -21.0200 26037.4 -03472.4 -07.5962 26268.0
 11 08 2013  00 39  -21.0201 26037.4 -03472.4 -07.5962 26267.9
 11 08 2013  00 40  -21.0200 26037.4 -03472.4 -07.5962 26267.9
 11 08 2013  00 41  -21.0199 26037.4 -03472.4 -07.5962 26267.9
 11 08 2013  00 42  -21.0198 26037.4 -03472.4 -07.5962 26267.9
 11 08 2013  00 43  -21.0198 26037.3 -03472.4 -07.5963 26267.9
 11 08 2013  00 44  -21.0199 26037.4 -03472.5 -07.5964 26267.9
 11 08 2013  00 45  -21.0200 26037.4 -03472.5 -07.5964 26267.9
 11 08 2013  00 46  -21.0201 26037.4 -03472.5 -07.5965 26268.0
 11 08 2013  00 47  -21.0201 26037.4 -03472.5 -07.5964 26267.9
 11 08 2013  00 48  -21.0202 26037.3 -03472.5 -07.5964 26267.8
 11 08 2013  00 49  -21.0203 26037.1 -03472.4 -07.5963 26267.7
 11 08 2013  00 50  -21.0204 26037.1 -03472.4 -07.5963 26267.6
 11 08 2013  00 51  -21.0203 26037.1 -03472.4 -07.5962 26267.6
 11 08 2013  00 52  -21.0202 26037.1 -03472.4 -07.5963 26267.6
 11 08 2013  00 53  -21.0201 26037.1 -03472.4 -07.5963 26267.6
 11 08 2013  00 54  -21.0202 26036.9 -03472.3 -07.5962 26267.4
 11 08 2013  00 55  -21.0204 26036.8 -03472.3 -07.5962 26267.4
 11 08 2013  00 56  -21.0207 26036.8 -03472.3 -07.5962 26267.3
 11 08 2013  00 57  -21.0209 26036.7 -03472.3 -07.5962 26267.3
 11 08 2013  00 58  -21.0210 26036.6 -03472.3 -07.5962 26267.1
 11 08 2013  00 59  -21.0209 26036.6 -03472.2 -07.5961 26267.1
 11 08 2013  01 00  -21.0208 26036.5 -03472.2 -07.5961 26267.0
 11 08 2013  01 01  -21.0207 26036.5 -03472.2 -07.5961 26267.0
 11 08 2013  01 02  -21.0207 26036.5 -03472.2 -07.5961 26267.0
 11 08 2013  01 03  -21.0208 26036.3 -03472.2 -07.5961 26266.8
 11 08 2013  01 04  -21.0209 26036.1 -03472.1 -07.5960 26266.6
 11 08 2013  01 05  -21.0210 26035.9 -03472.0 -07.5959 26266.4
 11 08 2013  01 06  -21.0210 26035.8 -03472.0 -07.5958 26266.2
 11 08 2013  01 07  -21.0209 26035.7 -03472.0 -07.5958 26266.2
 11 08 2013  01 08  -21.0209 26035.8 -03472.0 -07.5959 26266.3
 11 08 2013  01 09  -21.0208 26035.7 -03472.0 -07.5960 26266.2
 11 08 2013  01 10  -21.0208 26035.6 -03472.0 -07.5959 26266.1
 11 08 2013  01 11  -21.0207 26035.6 -03472.0 -07.5960 26266.1
 11 08 2013  01 12  -21.0206 26035.8 -03472.1 -07.5962 26266.3
 11 08 2013  01 13  -21.0205 26036.0 -03472.3 -07.5964 26266.5
 11 08 2013  01 14  -21.0204 26036.1 -03472.4 -07.5965 26266.6
 11 08 2013  01 15  -21.0203 26036.0 -03472.4 -07.5966 26266.5
 11 08 2013  01 16  -21.0204 26036.0 -03472.4 -07.5966 26266.6
 11 08 2013  01 17  -21.0202 26036.1 -03472.4 -07.5966 26266.6
 11 08 2013  01 18  -21.0201 26036.1 -03472.4 -07.5967 26266.7
 11 08 2013  01 19  -21.0199 26036.2 -03472.5 -07.5967 26266.7
 11 08 2013  01 20  -21.0197 26036.2 -03472.5 -07.5968 26266.8
 11 08 2013  01 21  -21.0196 26036.2 -03472.5 -07.5968 26266.8
 11 08 2013  01 22  -21.0193 26036.1 -03472.4 -07.5967 26266.7
 11 08 2013  01 23  -21.0191 26036.0 -03472.4 -07.5966 26266.5
 11 08 2013  01 24  -21.0191 26035.8 -03472.3 -07.5965 26266.3
 11 08 2013  01 25  -21.0190 26035.6 -03472.3 -07.5965 26266.2
 11 08 2013  01 26  -21.0191 26035.6 -03472.3 -07.5965 26266.2
 11 08 2013  01 27  -21.0192 26035.6 -03472.4 -07.5966 26266.2
 11 08 2013  01 28  -21.0193 26035.6 -03472.4 -07.5967 26266.2
 11 08 2013  01 29  -21.0192 26035.6 -03472.4 -07.5967 26266.1
 11 08 2013  01 30  -21.0192 26035.6 -03472.4 -07.5968 26266.1
 11 08 2013  01 31  -21.0192 26035.6 -03472.4 -07.5968 26266.1
 11 08 2013  01 32  -21.0192 26035.5 -03472.4 -07.5968 26266.0
 11 08 2013  01 33  -21.0192 26035.3 -03472.3 -07.5966 26265.8
 11 08 2013  01 34  -21.0192 26035.2 -03472.3 -07.5966 26265.7
 11 08 2013  01 35  -21.0194 26035.2 -03472.3 -07.5966 26265.7
 11 08 2013  01 36  -21.0195 26035.1 -03472.2 -07.5966 26265.6
 11 08 2013  01 37  -21.0196 26035.0 -03472.2 -07.5966 26265.5
 11 08 2013  01 38  -21.0196 26034.9 -03472.2 -07.5966 26265.4
 11 08 2013  01 39  -21.0195 26034.9 -03472.2 -07.5966 26265.4
 11 08 2013  01 40  -21.0194 26035.0 -03472.2 -07.5966 26265.5
 11 08 2013  01 41  -21.0194 26035.0 -03472.3 -07.5966 26265.5
 11 08 2013  01 42  -21.0194 26034.8 -03472.2 -07.5966 26265.4
 11 08 2013  01 43  -21.0195 26034.7 -03472.2 -07.5965 26265.2
 11 08 2013  01 44  -21.0197 26034.6 -03472.2 -07.5966 26265.1
 11 08 2013  01 45  -21.0198 26034.7 -03472.2 -07.5966 26265.2
 11 08 2013  01 46  -21.0197 26034.8 -03472.3 -07.5968 26265.3
 11 08 2013  01 47  -21.0197 26034.7 -03472.2 -07.5967 26265.2
 11 08 2013  01 48  -21.0197 26034.6 -03472.2 -07.5967 26265.2
 11 08 2013  01 49  -21.0197 26034.5 -03472.2 -07.5966 26265.0
 11 08 2013  01 50  -21.0196 26034.5 -03472.2 -07.5965 26265.0
 11 08 2013  01 51  -21.0196 26034.5 -03472.2 -07.5966 26265.1
 11 08 2013  01 52  -21.0196 26034.4 -03472.2 -07.5966 26265.0
 11 08 2013  01 53  -21.0196 26034.3 -03472.1 -07.5965 26264.9
 11 08 2013  01 54  -21.0196 26034.3 -03472.1 -07.5965 26264.9
 11 08 2013  01 55  -21.0196 26034.2 -03472.1 -07.5965 26264.7
 11 08 2013  01 56  -21.0196 26034.3 -03472.1 -07.5965 26264.8
 11 08 2013  01 57  -21.0195 26034.4 -03472.2 -07.5966 26265.0
 11 08 2013  01 58  -21.0194 26034.5 -03472.2 -07.5967 26265.0
 11 08 2013  01 59  -21.0194 26034.5 -03472.2 -07.5968 26265.0
 11 08 2013  02 00  -21.0194 26034.4 -03472.3 -07.5968 26265.0
 11 08 2013  02 01  -21.0194 26034.5 -03472.3 -07.5969 26265.0
 11 08 2013  02 02  -21.0193 26034.6 -03472.3 -07.5969 26265.1
 11 08 2013  02 03  -21.0193 26034.6 -03472.3 -07.5969 26265.1
 11 08 2013  02 04  -21.0192 26034.7 -03472.4 -07.5970 26265.2
 11 08 2013  02 05  -21.0191 26034.8 -03472.4 -07.5971 26265.3
 11 08 2013  02 06  -21.0190 26034.9 -03472.5 -07.5971 26265.4
 11 08 2013  02 07  -21.0189 26034.8 -03472.4 -07.5971 26265.3
 11 08 2013  02 08  -21.0188 26034.9 -03472.5 -07.5971 26265.5
 11 08 2013  02 09  -21.0187 26035.1 -03472.6 -07.5973 26265.7
 11 08 2013  02 10  -21.0185 26035.3 -03472.7 -07.5975 26265.9
 11 08 2013  02 11  -21.0184 26035.3 -03472.7 -07.5975 26265.9
 11 08 2013  02 12  -21.0184 26035.4 -03472.7 -07.5976 26265.9
 11 08 2013  02 13  -21.0182 26035.5 -03472.8 -07.5976 26266.1
 11 08 2013  02 14  -21.0183 26035.6 -03472.8 -07.5977 26266.2
 11 08 2013  02 15  -21.0184 26035.6 -03472.8 -07.5976 26266.2
 11 08 2013  02 16  -21.0186 26035.5 -03472.7 -07.5975 26266.1
 11 08 2013  02 17  -21.0186 26035.4 -03472.7 -07.5974 26266.0
 11 08 2013  02 18  -21.0184 26035.5 -03472.7 -07.5974 26266.0
 11 08 2013  02 19  -21.0182 26035.5 -03472.7 -07.5974 26266.0
 11 08 2013  02 20  -21.0181 26035.5 -03472.7 -07.5975 26266.1
 11 08 2013  02 21  -21.0180 26035.6 -03472.8 -07.5975 26266.2
 11 08 2013  02 22  -21.0180 26035.6 -03472.8 -07.5975 26266.1
 11 08 2013  02 23  -21.0179 26035.5 -03472.7 -07.5974 26266.0
 11 08 2013  02 24  -21.0177 26035.7 -03472.8 -07.5975 26266.3
 11 08 2013  02 25  -21.0174 26036.0 -03473.0 -07.5978 26266.6
 11 08 2013  02 26  -21.0171 26036.3 -03473.1 -07.5981 26266.9
 11 08 2013  02 27  -21.0168 26036.4 -03473.2 -07.5982 26267.0
 11 08 2013  02 28  -21.0167 26036.3 -03473.1 -07.5982 26266.9
 11 08 2013  02 29  -21.0167 26036.2 -03473.1 -07.5981 26266.8
 11 08 2013  02 30  -21.0165 26036.2 -03473.1 -07.5981 26266.9
 11 08 2013  02 31  -21.0163 26036.4 -03473.2 -07.5982 26267.0
 11 08 2013  02 32  -21.0161 26036.5 -03473.3 -07.5984 26267.2
 11 08 2013  02 33  -21.0160 26036.6 -03473.4 -07.5986 26267.3
 11 08 2013  02 34  -21.0159 26036.8 -03473.4 -07.5986 26267.5
 11 08 2013  02 35  -21.0159 26037.0 -03473.5 -07.5988 26267.7
 11 08 2013  02 36  -21.0158 26037.1 -03473.6 -07.5989 26267.7
 11 08 2013  02 37  -21.0159 26036.9 -03473.5 -07.5987 26267.6
 11 08 2013  02 38  -21.0161 26036.7 -03473.3 -07.5985 26267.3
 11 08 2013  02 39  -21.0161 26036.6 -03473.3 -07.5983 26267.2
 11 08 2013  02 40  -21.0160 26036.6 -03473.3 -07.5983 26267.3
 11 08 2013  02 41  -21.0158 26036.7 -03473.3 -07.5984 26267.4
 11 08 2013  02 42  -21.0155 26036.8 -03473.3 -07.5984 26267.5
 11 08 2013  02 43  -21.0151 26037.0 -03473.4 -07.5985 26267.6
 11 08 2013  02 44  -21.0148 26037.1 -03473.5 -07.5986 26267.8
 11 08 2013  02 45  -21.0147 26037.2 -03473.5 -07.5987 26267.8
 11 08 2013  02 46  -21.0144 26037.4 -03473.6 -07.5988 26268.1
 11 08 2013  02 47  -21.0141 26037.4 -03473.6 -07.5988 26268.1
 11 08 2013  02 48  -21.0140 26037.4 -03473.6 -07.5987 26268.0
 11 08 2013  02 49  -21.0140 26037.1 -03473.4 -07.5986 26267.8
 11 08 2013  02 50  -21.0141 26036.8 -03473.3 -07.5983 26267.4
 11 08 2013  02 51  -21.0141 26036.5 -03473.2 -07.5981 26267.2
 11 08 2013  02 52  -21.0140 26036.4 -03473.1 -07.5981 26267.1
 11 08 2013  02 53  -21.0138 26036.4 -03473.1 -07.5980 26267.1
 11 08 2013  02 54  -21.0137 26036.3 -03473.1 -07.5980 26266.9
 11 08 2013  02 55  -21.0136 26036.2 -03473.0 -07.5979 26266.8
 11 08 2013  02 56  -21.0140 26035.9 -03472.9 -07.5978 26266.5
 11 08 2013  02 57  -21.0143 26035.5 -03472.8 -07.5976 26266.0
 11 08 2013  02 58  -21.0143 26035.4 -03472.8 -07.5976 26266.0
 11 08 2013  02 59  -21.0143 26035.3 -03472.7 -07.5975 26265.9
 11 08 2013  03 00  -21.0142 26035.3 -03472.8 -07.5976 26265.9
 11 08 2013  03 01  -21.0143 26035.4 -03472.8 -07.5978 26266.0
 11 08 2013  03 02  -21.0144 26035.3 -03472.8 -07.5978 26265.9
 11 08 2013  03 03  -21.0145 26035.0 -03472.7 -07.5975 26265.6
 11 08 2013  03 04  -21.0146 26034.8 -03472.6 -07.5975 26265.4
 11 08 2013  03 05  -21.0146 26034.7 -03472.6 -07.5974 26265.3
 11 08 2013  03 06  -21.0146 26034.7 -03472.6 -07.5975 26265.3
 11 08 2013  03 07  -21.0148 26034.6 -03472.6 -07.5974 26265.2
 11 08 2013  03 08  -21.0147 26034.5 -03472.6 -07.5974 26265.1
 11 08 2013  03 09  -21.0149 26034.3 -03472.5 -07.5974 26264.9
 11 08 2013  03 10  -21.0148 26034.4 -03472.6 -07.5974 26265.0
 11 08 2013  03 11  -21.0148 26034.5 -03472.6 -07.5975 26265.1
 11 08 2013  03 12  -21.0147 26034.6 -03472.7 -07.5976 26265.2
 11 08 2013  03 13  -21.0145 26034.7 -03472.7 -07.5977 26265.2
 11 08 2013  03 14  -21.0145 26034.7 -03472.8 -07.5978 26265.3
 11 08 2013  03 15  -21.0144 26034.7 -03472.8 -07.5979 26265.3
 11 08 2013  03 16  -21.0145 26034.6 -03472.8 -07.5979 26265.2
 11 08 2013  03 17  -21.0146 26034.5 -03472.7 -07.5978 26265.1
 11 08 2013  03 18  -21.0145 26034.5 -03472.7 -07.5978 26265.1
 11 08 2013  03 19  -21.0142 26034.7 -03472.8 -07.5980 26265.3
 11 08 2013  03 20  -21.0142 26034.7 -03472.9 -07.5981 26265.3
 11 08 2013  03 21  -21.0140 26034.6 -03472.8 -07.5979 26265.2
 11 08 2013  03 22  -21.0141 26034.8 -03473.0 -07.5982 26265.4
 11 08 2013  03 23  -21.0139 26034.9 -03473.0 -07.5983 26265.5
 11 08 2013  03 24  -21.0139 26034.7 -03472.9 -07.5982 26265.3
 11 08 2013  03 25  -21.0138 26034.8 -03473.0 -07.5983 26265.4
 11 08 2013  03 26  -21.0139 26034.5 -03472.9 -07.5982 26265.2
 11 08 2013  03 27  -21.0139 26034.6 -03472.9 -07.5982 26265.2
 11 08 2013  03 28  -21.0141 26034.4 -03472.9 -07.5982 26265.0
 11 08 2013  03 29  -21.0141 26034.1 -03472.8 -07.5981 26264.7
 11 08 2013  03 30  -21.0140 26034.1 -03472.7 -07.5979 26264.7
 11 08 2013  03 31  -21.0139 26034.1 -03472.8 -07.5980 26264.7
 11 08 2013  03 32  -21.0137 26034.1 -03472.8 -07.5980 26264.7
 11 08 2013  03 33  -21.0135 26034.3 -03472.9 -07.5981 26264.9
 11 08 2013  03 34  -21.0134 26034.2 -03472.9 -07.5982 26264.8
 11 08 2013  03 35  -21.0134 26034.0 -03472.8 -07.5981 26264.6
 11 08 2013  03 36  -21.0134 26033.9 -03472.8 -07.5980 26264.5
 11 08 2013  03 37  -21.0134 26033.9 -03472.8 -07.5982 26264.5
 11 08 2013  03 38  -21.0133 26033.7 -03472.7 -07.5980 26264.3
 11 08 2013  03 39  -21.0133 26033.6 -03472.7 -07.5981 26264.2
 11 08 2013  03 40  -21.0134 26033.0 -03472.5 -07.5977 26263.6
 11 08 2013  03 41  -21.0134 26033.1 -03472.5 -07.5978 26263.7
 11 08 2013  03 42  -21.0137 26033.0 -03472.6 -07.5979 26263.6
 11 08 2013  03 43  -21.0139 26032.9 -03472.6 -07.5979 26263.5
 11 08 2013  03 44  -21.0141 26032.9 -03472.6 -07.5981 26263.5
 11 08 2013  03 45  -21.0141 26032.9 -03472.6 -07.5981 26263.5
 11 08 2013  03 46  -21.0140 26033.0 -03472.7 -07.5982 26263.6
 11 08 2013  03 47  -21.0140 26033.0 -03472.8 -07.5983 26263.6
 11 08 2013  03 48  -21.0141 26032.9 -03472.7 -07.5983 26263.5
 11 08 2013  03 49  -21.0142 26032.6 -03472.6 -07.5981 26263.2
 11 08 2013  03 50  -21.0142 26032.6 -03472.6 -07.5981 26263.2
 11 08 2013  03 51  -21.0142 26032.6 -03472.6 -07.5981 26263.2
 11 08 2013  03 52  -21.0140 26032.6 -03472.6 -07.5981 26263.2
 11 08 2013  03 53  -21.0141 26032.7 -03472.7 -07.5983 26263.3
 11 08 2013  03 54  -21.0143 26032.4 -03472.6 -07.5982 26263.0
 11 08 2013  03 55  -21.0142 26032.3 -03472.6 -07.5981 26262.9
 11 08 2013  03 56  -21.0143 26032.2 -03472.6 -07.5982 26262.8
 11 08 2013  03 57  -21.0142 26032.4 -03472.7 -07.5982 26263.0
 11 08 2013  03 58  -21.0143 26032.3 -03472.7 -07.5983 26262.9
 11 08 2013  03 59  -21.0142 26032.3 -03472.7 -07.5984 26262.9
 11 08 2013  04 00  -21.0143 26032.3 -03472.7 -07.5984 26263.0
 11 08 2013  04 01  -21.0143 26032.4 -03472.7 -07.5984 26263.0
 11 08 2013  04 02  -21.0141 26032.9 -03473.0 -07.5988 26263.6
 11 08 2013  04 03  -21.0143 26032.9 -03473.1 -07.5991 26263.6
 11 08 2013  04 04  -21.0144 26033.0 -03473.1 -07.5990 26263.6
 11 08 2013  04 05  -21.0143 26033.2 -03473.2 -07.5992 26263.9
 11 08 2013  04 06  -21.0142 26033.5 -03473.3 -07.5994 26264.2
 11 08 2013  04 07  -21.0142 26033.5 -03473.4 -07.5994 26264.2
 11 08 2013  04 08  -21.0142 26033.7 -03473.4 -07.5995 26264.4
 11 08 2013  04 09  -21.0144 26033.8 -03473.5 -07.5997 26264.5
 11 08 2013  04 10  -21.0146 26033.8 -03473.5 -07.5997 26264.5
 11 08 2013  04 11  -21.0149 26034.0 -03473.6 -07.5998 26264.7
 11 08 2013  04 12  -21.0151 26034.0 -03473.6 -07.5998 26264.7
 11 08 2013  04 13  -21.0152 26034.1 -03473.6 -07.5998 26264.8
 11 08 2013  04 14  -21.0154 26034.0 -03473.6 -07.5997 26264.7
 11 08 2013  04 15  -21.0157 26034.1 -03473.5 -07.5996 26264.8
 11 08 2013  04 16  -21.0157 26034.6 -03473.7 -07.6000 26265.3
 11 08 2013  04 17  -21.0160 26034.0 -03473.5 -07.5996 26264.7
 11 08 2013  04 18  -21.0162 26034.1 -03473.5 -07.5996 26264.8
 11 08 2013  04 19  -21.0164 26034.0 -03473.4 -07.5994 26264.7
 11 08 2013  04 20  -21.0165 26034.2 -03473.5 -07.5995 26264.9
 11 08 2013  04 21  -21.0165 26034.1 -03473.5 -07.5995 26264.8
 11 08 2013  04 22  -21.0166 26034.0 -03473.4 -07.5993 26264.6
 11 08 2013  04 23  -21.0165 26034.0 -03473.4 -07.5993 26264.6
 11 08 2013  04 24  -21.0166 26033.6 -03473.2 -07.5990 26264.3
 11 08 2013  04 25  -21.0166 26033.6 -03473.1 -07.5989 26264.3
 11 08 2013  04 26  -21.0166 26033.6 -03473.2 -07.5990 26264.3
 11 08 2013  04 27  -21.0168 26033.6 -03473.2 -07.5990 26264.3
 11 08 2013  04 28  -21.0169 26033.4 -03473.1 -07.5989 26264.1
 11 08 2013  04 29  -21.0171 26033.3 -03473.1 -07.5989 26264.0
 11 08 2013  04 30  -21.0172 26033.1 -03473.0 -07.5988 26263.8
 11 08 2013  04 31  -21.0173 26033.0 -03472.9 -07.5987 26263.6
 11 08 2013  04 32  -21.0174 26032.9 -03472.9 -07.5986 26263.5
 11 08 2013  04 33  -21.0174 26032.9 -03472.9 -07.5986 26263.5
 11 08 2013  04 34  -21.0173 26033.1 -03473.0 -07.5988 26263.7
 11 08 2013  04 35  -21.0171 26033.2 -03473.1 -07.5989 26263.8
 11 08 2013  04 36  -21.0173 26033.1 -03473.0 -07.5989 26263.7
 11 08 2013  04 37  -21.0175 26032.8 -03472.9 -07.5987 26263.4
 11 08 2013  04 38  -21.0173 26033.0 -03473.0 -07.5988 26263.7
 11 08 2013  04 39  -21.0171 26033.0 -03473.0 -07.5988 26263.6
 11 08 2013  04 40  -21.0169 26033.1 -03473.0 -07.5989 26263.7
 11 08 2013  04 41  -21.0169 26033.2 -03473.1 -07.5990 26263.8
 11 08 2013  04 42  -21.0172 26032.6 -03472.9 -07.5988 26263.3
 11 08 2013  04 43  -21.0170 26032.7 -03472.9 -07.5987 26263.4
 11 08 2013  04 44  -21.0169 26033.0 -03473.0 -07.5989 26263.6
 11 08 2013  04 45  -21.0166 26033.2 -03473.2 -07.5991 26263.8
 11 08 2013  04 46  -21.0165 26033.5 -03473.3 -07.5993 26264.2
 11 08 2013  04 47  -21.0167 26033.2 -03473.3 -07.5993 26263.8
 11 08 2013  04 48  -21.0168 26033.2 -03473.2 -07.5992 26263.8
 11 08 2013  04 49  -21.0168 26033.1 -03473.2 -07.5993 26263.8
 11 08 2013  04 50  -21.0166 26033.2 -03473.2 -07.5992 26263.9
 11 08 2013  04 51  -21.0167 26033.0 -03473.2 -07.5993 26263.7
 11 08 2013  04 52  -21.0166 26033.1 -03473.2 -07.5993 26263.7
 11 08 2013  04 53  -21.0165 26033.4 -03473.4 -07.5996 26264.1
 11 08 2013  04 54  -21.0165 26033.3 -03473.4 -07.5996 26263.9
 11 08 2013  04 55  -21.0167 26033.1 -03473.3 -07.5995 26263.8
 11 08 2013  04 56  -21.0166 26033.3 -03473.4 -07.5996 26264.0
 11 08 2013  04 57  -21.0167 26033.2 -03473.4 -07.5996 26263.9
 11 08 2013  04 58  -21.0168 26033.3 -03473.4 -07.5996 26264.0
 11 08 2013  04 59  -21.0169 26033.2 -03473.3 -07.5995 26263.9
 11 08 2013  05 00  -21.0168 26033.2 -03473.3 -07.5995 26263.9
 11 08 2013  05 01  -21.0166 26033.2 -03473.4 -07.5996 26263.9
 11 08 2013  05 02  -21.0165 26033.2 -03473.4 -07.5996 26263.9
 11 08 2013  05 03  -21.0159 26033.6 -03473.5 -07.5998 26264.3
 11 08 2013  05 04  -21.0156 26033.8 -03473.7 -07.6000 26264.5
 11 08 2013  05 05  -21.0155 26034.0 -03473.7 -07.6001 26264.7
 11 08 2013  05 06  -21.0153 26034.5 -03474.0 -07.6006 26265.2
 11 08 2013  05 07  -21.0153 26034.8 -03474.2 -07.6009 26265.6
 11 08 2013  05 08  -21.0154 26034.4 -03474.0 -07.6006 26265.1
 11 08 2013  05 09  -21.0153 26034.9 -03474.2 -07.6008 26265.7
 11 08 2013  05 10  -21.0151 26035.1 -03474.3 -07.6009 26265.9
 11 08 2013  05 11  -21.0148 26035.8 -03474.6 -07.6014 26266.6
 11 08 2013  05 12  -21.0148 26035.8 -03474.6 -07.6015 26266.7
 11 08 2013  05 13  -21.0148 26036.1 -03474.7 -07.6017 26267.0
 11 08 2013  05 14  -21.0149 26036.3 -03474.8 -07.6018 26267.1
 11 08 2013  05 15  -21.0148 26036.3 -03474.7 -07.6016 26267.1
 11 08 2013  05 16  -21.0145 26036.6 -03474.9 -07.6018 26267.4
 11 08 2013  05 17  -21.0144 26036.3 -03474.7 -07.6015 26267.1
 11 08 2013  05 18  -21.0143 26036.5 -03474.7 -07.6015 26267.3
 11 08 2013  05 19  -21.0145 26036.2 -03474.5 -07.6012 26267.0
 11 08 2013  05 20  -21.0147 26036.3 -03474.5 -07.6012 26267.1
 11 08 2013  05 21  -21.0150 26036.0 -03474.4 -07.6010 26266.8
 11 08 2013  05 22  -21.0152 26036.1 -03474.4 -07.6010 26266.9
 11 08 2013  05 23  -21.0153 26035.8 -03474.3 -07.6008 26266.6
 11 08 2013  05 24  -21.0153 26035.7 -03474.2 -07.6007 26266.4
 11 08 2013  05 25  -21.0152 26035.4 -03474.1 -07.6004 26266.1
 11 08 2013  05 26  -21.0151 26035.4 -03474.0 -07.6004 26266.1
 11 08 2013  05 27  -21.0150 26035.4 -03474.0 -07.6004 26266.1
 11 08 2013  05 28  -21.0151 26035.1 -03474.0 -07.6003 26265.8
 11 08 2013  05 29  -21.0152 26034.8 -03473.8 -07.6001 26265.6
 11 08 2013  05 30  -21.0152 26034.7 -03473.8 -07.6000 26265.4
 11 08 2013  05 31  -21.0152 26034.5 -03473.7 -07.5999 26265.2
 11 08 2013  05 32  -21.0151 26034.3 -03473.6 -07.5998 26265.0
 11 08 2013  05 33  -21.0151 26034.3 -03473.6 -07.5998 26265.0
 11 08 2013  05 34  -21.0152 26034.1 -03473.6 -07.5997 26264.8
 11 08 2013  05 35  -21.0151 26034.2 -03473.6 -07.5999 26264.9
 11 08 2013  05 36  -21.0151 26034.1 -03473.7 -07.5999 26264.9
 11 08 2013  05 37  -21.0152 26034.1 -03473.7 -07.6000 26264.8
 11 08 2013  05 38  -21.0153 26034.1 -03473.7 -07.6000 26264.8
 11 08 2013  05 39  -21.0154 26034.0 -03473.7 -07.6000 26264.7
 11 08 2013  05 40  -21.0154 26034.0 -03473.7 -07.6001 26264.8
 11 08 2013  05 41  -21.0154 26034.1 -03473.8 -07.6002 26264.8
 11 08 2013  05 42  -21.0153 26034.2 -03473.9 -07.6003 26265.0
 11 08 2013  05 43  -21.0151 26034.2 -03473.8 -07.6003 26265.0
 11 08 2013  05 44  -21.0148 26034.4 -03473.9 -07.6004 26265.1
 11 08 2013  05 45  -21.0147 26034.4 -03474.0 -07.6005 26265.2
 11 08 2013  05 46  -21.0145 26034.5 -03474.0 -07.6006 26265.3
 11 08 2013  05 47  -21.0146 26034.5 -03474.0 -07.6006 26265.2
 11 08 2013  05 48  -21.0147 26034.5 -03474.1 -07.6006 26265.3
 11 08 2013  05 49  -21.0148 26034.4 -03474.0 -07.6006 26265.1
 11 08 2013  05 50  -21.0147 26034.3 -03474.0 -07.6005 26265.1
 11 08 2013  05 51  -21.0147 26034.3 -03474.0 -07.6005 26265.1
 11 08 2013  05 52  -21.0147 26034.4 -03474.0 -07.6006 26265.1
 11 08 2013  05 53  -21.0149 26034.2 -03473.9 -07.6004 26265.0
 11 08 2013  05 54  -21.0149 26034.3 -03474.0 -07.6005 26265.1
 11 08 2013  05 55  -21.0151 26034.5 -03474.1 -07.6007 26265.2
 11 08 2013  05 56  -21.0154 26034.3 -03474.0 -07.6006 26265.1
 11 08 2013  05 57  -21.0154 26034.5 -03474.1 -07.6007 26265.3
 11 08 2013  05 58  -21.0154 26034.2 -03473.9 -07.6005 26265.0
 11 08 2013  05 59  -21.0153 26034.3 -03474.0 -07.6005 26265.0
 11 08 2013  06 00  -21.0152 26034.4 -03474.0 -07.6006 26265.1
 11 08 2013  06 01  -21.0152 26034.4 -03474.0 -07.6007 26265.2
 11 08 2013  06 02  -21.0151 26034.6 -03474.1 -07.6008 26265.4
 11 08 2013  06 03  -21.0151 26034.6 -03474.2 -07.6009 26265.4
 11 08 2013  06 04  -21.0149 26034.7 -03474.2 -07.6009 26265.5
 11 08 2013  06 05  -21.0147 26034.7 -03474.2 -07.6009 26265.5
 11 08 2013  06 06  -21.0144 26034.9 -03474.3 -07.6010 26265.7
 11 08 2013  06 07  -21.0142 26034.9 -03474.3 -07.6011 26265.7
 11 08 2013  06 08  -21.0139 26035.1 -03474.4 -07.6012 26265.9
 11 08 2013  06 09  -21.0137 26035.1 -03474.4 -07.6013 26265.9
 11 08 2013  06 10  -21.0133 26035.0 -03474.4 -07.6012 26265.8
 11 08 2013  06 11  -21.0130 26035.3 -03474.5 -07.6014 26266.2
 11 08 2013  06 12  -21.0128 26035.5 -03474.6 -07.6016 26266.3
 11 08 2013  06 13  -21.0126 26035.8 -03474.8 -07.6018 26266.6
 11 08 2013  06 14  -21.0125 26035.8 -03474.8 -07.6020 26266.7
 11 08 2013  06 15  -21.0124 26036.0 -03474.9 -07.6020 26266.8
 11 08 2013  06 16  -21.0123 26036.0 -03474.9 -07.6021 26266.9
 11 08 2013  06 17  -21.0123 26036.0 -03474.9 -07.6021 26266.9
 11 08 2013  06 18  -21.0122 26036.1 -03474.9 -07.6021 26267.0
 11 08 2013  06 19  -21.0121 26036.3 -03475.0 -07.6022 26267.2
 11 08 2013  06 20  -21.0120 26036.3 -03475.0 -07.6022 26267.1
 11 08 2013  06 21  -21.0119 26036.3 -03475.0 -07.6022 26267.1
 11 08 2013  06 22  -21.0120 26036.0 -03474.9 -07.6020 26266.8
 11 08 2013  06 23  -21.0118 26036.1 -03474.9 -07.6020 26266.9
 11 08 2013  06 24  -21.0120 26036.1 -03474.9 -07.6020 26266.9
 11 08 2013  06 25  -21.0121 26036.1 -03474.9 -07.6020 26267.0
 11 08 2013  06 26  -21.0120 26036.2 -03475.0 -07.6021 26267.0
 11 08 2013  06 27  -21.0123 26035.9 -03474.9 -07.6020 26266.8
 11 08 2013  06 28  -21.0121 26036.0 -03474.8 -07.6019 26266.8
 11 08 2013  06 29  -21.0120 26036.0 -03474.9 -07.6020 26266.9
 11 08 2013  06 30  -21.0117 26036.0 -03474.9 -07.6020 26266.8
 11 08 2013  06 31  -21.0114 26036.1 -03474.9 -07.6020 26266.9
 11 08 2013  06 32  -21.0116 26036.0 -03474.9 -07.6021 26266.9
 11 08 2013  06 33  -21.0119 26035.9 -03474.9 -07.6021 26266.8
 11 08 2013  06 34  -21.0121 26035.8 -03474.8 -07.6020 26266.6
 11 08 2013  06 35  -21.0119 26035.9 -03474.9 -07.6021 26266.8
 11 08 2013  06 36  -21.0119 26036.1 -03475.0 -07.6022 26266.9
 11 08 2013  06 37  -21.0115 26036.2 -03475.0 -07.6023 26267.1
 11 08 2013  06 38  -21.0113 26036.2 -03475.1 -07.6024 26267.1
 11 08 2013  06 39  -21.0111 26036.1 -03475.0 -07.6023 26266.9
 11 08 2013  06 40  -21.0110 26036.0 -03475.0 -07.6022 26266.9
 11 08 2013  06 41  -21.0107 26036.2 -03475.0 -07.6023 26267.1
 11 08 2013  06 42  -21.0108 26036.0 -03475.0 -07.6023 26266.9
 11 08 2013  06 43  -21.0104 26036.6 -03475.3 -07.6027 26267.5
 11 08 2013  06 44  -21.0104 26036.6 -03475.3 -07.6028 26267.6
 11 08 2013  06 45  -21.0102 26036.8 -03475.4 -07.6029 26267.7
 11 08 2013  06 46  -21.0098 26036.7 -03475.3 -07.6028 26267.6
 11 08 2013  06 47  -21.0096 26036.8 -03475.4 -07.6028 26267.7
 11 08 2013  06 48  -21.0094 26036.8 -03475.4 -07.6029 26267.7
 11 08 2013  06 49  -21.0095 26036.6 -03475.3 -07.6028 26267.6
 11 08 2013  06 50  -21.0093 26036.5 -03475.3 -07.6027 26267.4
 11 08 2013  06 51  -21.0091 26036.6 -03475.3 -07.6027 26267.5
 11 08 2013  06 52  -21.0089 26036.6 -03475.3 -07.6028 26267.6
 11 08 2013  06 53  -21.0088 26036.6 -03475.3 -07.6028 26267.5
 11 08 2013  06 54  -21.0083 26036.7 -03475.3 -07.6028 26267.6
 11 08 2013  06 55  -21.0080 26037.0 -03475.5 -07.6031 26268.0
 11 08 2013  06 56  -21.0077 26036.9 -03475.5 -07.6031 26267.9
 11 08 2013  06 57  -21.0073 26037.1 -03475.6 -07.6032 26268.1
 11 08 2013  06 58  -21.0071 26037.4 -03475.7 -07.6035 26268.3
 11 08 2013  06 59  -21.0071 26037.4 -03475.8 -07.6035 26268.3
 11 08 2013  07 00  -21.0070 26037.4 -03475.8 -07.6036 26268.4
 11 08 2013  07 01  -21.0069 26037.4 -03475.8 -07.6037 26268.4
 11 08 2013  07 02  -21.0069 26037.5 -03475.9 -07.6038 26268.5
 11 08 2013  07 03  -21.0071 26037.2 -03475.7 -07.6035 26268.2
 11 08 2013  07 04  -21.0072 26037.0 -03475.6 -07.6033 26267.9
 11 08 2013  07 05  -21.0073 26036.7 -03475.4 -07.6030 26267.6
 11 08 2013  07 06  -21.0069 26036.8 -03475.4 -07.6030 26267.7
 11 08 2013  07 07  -21.0066 26037.0 -03475.6 -07.6033 26268.0
 11 08 2013  07 08  -21.0063 26037.0 -03475.7 -07.6034 26268.0
 11 08 2013  07 09  -21.0063 26037.0 -03475.7 -07.6034 26268.0
 11 08 2013  07 10  -21.0060 26036.8 -03475.6 -07.6033 26267.8
 11 08 2013  07 11  -21.0058 26036.6 -03475.5 -07.6031 26267.5
 11 08 2013  07 12  -21.0056 26036.5 -03475.5 -07.6031 26267.5
 11 08 2013  07 13  -21.0055 26036.4 -03475.4 -07.6031 26267.3
 11 08 2013  07 14  -21.0053 26036.2 -03475.4 -07.6030 26267.1
 11 08 2013  07 15  -21.0051 26036.1 -03475.3 -07.6030 26267.0
 11 08 2013  07 16  -21.0050 26036.0 -03475.4 -07.6030 26266.9
 11 08 2013  07 17  -21.0049 26036.0 -03475.4 -07.6031 26266.9
 11 08 2013  07 18  -21.0047 26035.8 -03475.3 -07.6030 26266.8
 11 08 2013  07 19  -21.0047 26035.7 -03475.3 -07.6031 26266.6
 11 08 2013  07 20  -21.0043 26035.9 -03475.4 -07.6032 26266.8
 11 08 2013  07 21  -21.0045 26035.7 -03475.4 -07.6032 26266.6
 11 08 2013  07 22  -21.0044 26035.5 -03475.3 -07.6031 26266.4
 11 08 2013  07 23  -21.0041 26035.6 -03475.4 -07.6032 26266.5
 11 08 2013  07 24  -21.0041 26035.5 -03475.4 -07.6033 26266.4
 11 08 2013  07 25  -21.0037 26035.6 -03475.4 -07.6033 26266.5
 11 08 2013  07 26  -21.0035 26035.6 -03475.5 -07.6035 26266.5
 11 08 2013  07 27  -21.0032 26035.5 -03475.5 -07.6034 26266.4
 11 08 2013  07 28  -21.0027 26035.6 -03475.5 -07.6036 26266.5
 11 08 2013  07 29  -21.0025 26036.1 -03475.9 -07.6041 26267.1
 11 08 2013  07 30  -21.0026 26036.2 -03476.0 -07.6043 26267.2
 11 08 2013  07 31  -21.0025 26036.1 -03476.0 -07.6043 26267.1
 11 08 2013  07 32  -21.0022 26036.2 -03476.0 -07.6044 26267.2
 11 08 2013  07 33  -21.0023 26036.1 -03476.0 -07.6044 26267.1
 11 08 2013  07 34  -21.0025 26036.1 -03476.0 -07.6044 26267.1
 11 08 2013  07 35  -21.0026 26036.3 -03476.1 -07.6045 26267.3
 11 08 2013  07 36  -21.0029 26036.1 -03476.0 -07.6043 26267.1
 11 08 2013  07 37  -21.0028 26036.2 -03476.1 -07.6045 26267.2
 11 08 2013  07 38  -21.0029 26035.9 -03475.9 -07.6042 26266.9
 11 08 2013  07 39  -21.0030 26035.5 -03475.6 -07.6038 26266.4
 11 08 2013  07 40  -21.0029 26035.4 -03475.5 -07.6036 26266.4
 11 08 2013  07 41  -21.0027 26035.5 -03475.6 -07.6037 26266.4
 11 08 2013  07 42  -21.0026 26035.7 -03475.8 -07.6040 26266.7
 11 08 2013  07 43  -21.0026 26035.8 -03475.9 -07.6042 26266.8
 11 08 2013  07 44  -21.0024 26035.9 -03476.0 -07.6044 26267.0
 11 08 2013  07 45  -21.0022 26035.9 -03476.0 -07.6044 26266.9
 11 08 2013  07 46  -21.0015 26035.6 -03475.8 -07.6040 26266.6
 11 08 2013  07 47  -21.0009 26035.3 -03475.6 -07.6037 26266.3
 11 08 2013  07 48  -21.0001 26035.1 -03475.4 -07.6035 26266.1
 11 08 2013  07 49  -20.9994 26034.9 -03475.4 -07.6034 26265.9
 11 08 2013  07 50  -20.9985 26034.9 -03475.5 -07.6036 26265.8
 11 08 2013  07 51  -20.9979 26035.0 -03475.6 -07.6039 26266.0
 11 08 2013  07 52  -20.9976 26035.0 -03475.8 -07.6042 26266.0
 11 08 2013  07 53  -20.9976 26035.0 -03475.8 -07.6043 26266.0
 11 08 2013  07 54  -20.9972 26034.8 -03475.7 -07.6042 26265.8
 11 08 2013  07 55  -20.9969 26034.7 -03475.7 -07.6042 26265.7
 11 08 2013  07 56  -20.9968 26034.6 -03475.7 -07.6043 26265.6
 11 08 2013  07 57  -20.9968 26034.6 -03475.8 -07.6045 26265.6
 11 08 2013  07 58  -20.9969 26034.6 -03475.9 -07.6046 26265.6
 11 08 2013  07 59  -20.9969 26034.6 -03475.9 -07.6047 26265.6
 11 08 2013  08 00  -20.9966 26034.5 -03475.9 -07.6047 26265.5
 11 08 2013  08 01  -20.9963 26034.5 -03475.9 -07.6047 26265.6
 11 08 2013  08 02  -20.9960 26034.6 -03476.0 -07.6049 26265.6
 11 08 2013  08 03  -20.9957 26034.5 -03476.1 -07.6050 26265.5
 11 08 2013  08 04  -20.9955 26034.5 -03476.1 -07.6051 26265.5
 11 08 2013  08 05  -20.9953 26034.4 -03476.1 -07.6051 26265.4
 11 08 2013  08 06  -20.9950 26034.2 -03476.0 -07.6050 26265.2
 11 08 2013  08 07  -20.9948 26034.3 -03476.0 -07.6050 26265.3
 11 08 2013  08 08  -20.9944 26034.1 -03476.1 -07.6052 26265.1
 11 08 2013  08 09  -20.9941 26034.5 -03476.3 -07.6055 26265.5
 11 08 2013  08 10  -20.9942 26034.4 -03476.4 -07.6057 26265.4
 11 08 2013  08 11  -20.9939 26034.2 -03476.4 -07.6057 26265.3
 11 08 2013  08 12  -20.9935 26034.4 -03476.4 -07.6058 26265.5
 11 08 2013  08 13  -20.9934 26034.4 -03476.5 -07.6061 26265.5
 11 08 2013  08 14  -20.9933 26034.5 -03476.7 -07.6063 26265.7
 11 08 2013  08 15  -20.9932 26034.7 -03476.8 -07.6066 26265.8
 11 08 2013  08 16  -20.9934 26034.7 -03476.9 -07.6068 26265.9
 11 08 2013  08 17  -20.9934 26034.8 -03477.0 -07.6069 26266.0
 11 08 2013  08 18  -20.9933 26034.9 -03477.0 -07.6069 26266.1
 11 08 2013  08 19  -20.9931 26035.0 -03477.1 -07.6070 26266.1
 11 08 2013  08 20  -20.9928 26035.0 -03477.0 -07.6069 26266.1
 11 08 2013  08 21  -20.9926 26035.1 -03477.1 -07.6071 26266.3
 11 08 2013  08 22  -20.9926 26035.4 -03477.2 -07.6073 26266.5
 11 08 2013  08 23  -20.9924 26035.4 -03477.2 -07.6073 26266.6
 11 08 2013  08 24  -20.9922 26035.3 -03477.2 -07.6073 26266.5
 11 08 2013  08 25  -20.9920 26035.4 -03477.3 -07.6073 26266.5
 11 08 2013  08 26  -20.9919 26035.5 -03477.3 -07.6074 26266.7
 11 08 2013  08 27  -20.9919 26035.4 -03477.3 -07.6074 26266.6
 11 08 2013  08 28  -20.9918 26035.4 -03477.2 -07.6073 26266.5
 11 08 2013  08 29  -20.9913 26035.2 -03477.2 -07.6071 26266.4
 11 08 2013  08 30  -20.9909 26035.1 -03477.1 -07.6070 26266.3
 11 08 2013  08 31  -20.9905 26035.2 -03477.1 -07.6070 26266.4
 11 08 2013  08 32  -20.9904 26035.4 -03477.2 -07.6072 26266.5
 11 08 2013  08 33  -20.9905 26035.6 -03477.4 -07.6075 26266.8
 11 08 2013  08 34  -20.9907 26035.6 -03477.4 -07.6075 26266.8
 11 08 2013  08 35  -20.9905 26035.8 -03477.5 -07.6076 26267.0
 11 08 2013  08 36  -20.9898 26036.0 -03477.5 -07.6076 26267.2
 11 08 2013  08 37  -20.9897 26036.1 -03477.6 -07.6078 26267.4
 11 08 2013  08 38  -20.9893 26036.0 -03477.4 -07.6075 26267.2
 11 08 2013  08 39  -20.9889 26035.7 -03477.2 -07.6071 26266.9
 11 08 2013  08 40  -20.9888 26035.6 -03477.2 -07.6071 26266.8
 11 08 2013  08 41  -20.9884 26035.5 -03477.1 -07.6070 26266.7
 11 08 2013  08 42  -20.9882 26035.5 -03477.1 -07.6069 26266.6
 11 08 2013  08 43  -20.9877 26035.5 -03477.1 -07.6070 26266.7
 11 08 2013  08 44  -20.9872 26035.5 -03477.1 -07.6069 26266.7
 11 08 2013  08 45  -20.9867 26035.5 -03477.1 -07.6069 26266.7
 11 08 2013  08 46  -20.9861 26035.5 -03477.1 -07.6070 26266.6
 11 08 2013  08 47  -20.9853 26035.5 -03477.0 -07.6068 26266.6
 11 08 2013  08 48  -20.9847 26035.6 -03477.1 -07.6069 26266.8
 11 08 2013  08 49  -20.9842 26035.7 -03477.2 -07.6071 26266.9
 11 08 2013  08 50  -20.9834 26035.8 -03477.3 -07.6073 26266.9
 11 08 2013  08 51  -20.9827 26036.0 -03477.5 -07.6077 26267.2
 11 08 2013  08 52  -20.9821 26035.9 -03477.6 -07.6079 26267.2
 11 08 2013  08 53  -20.9818 26036.0 -03477.8 -07.6083 26267.3
 11 08 2013  08 54  -20.9814 26036.1 -03477.9 -07.6085 26267.4
 11 08 2013  08 55  -20.9810 26036.0 -03477.9 -07.6085 26267.2
 11 08 2013  08 56  -20.9807 26035.9 -03477.8 -07.6085 26267.1
 11 08 2013  08 57  -20.9804 26035.8 -03477.9 -07.6086 26267.1
 11 08 2013  08 58  -20.9801 26035.7 -03477.9 -07.6086 26266.9
 11 08 2013  08 59  -20.9799 26035.5 -03477.8 -07.6086 26266.8
 11 08 2013  09 00  -20.9800 26035.5 -03478.0 -07.6090 26266.8
 11 08 2013  09 01  -20.9800 26035.5 -03478.1 -07.6091 26266.8
 11 08 2013  09 02  -20.9800 26035.4 -03478.2 -07.6094 26266.7
 11 08 2013  09 03  -20.9798 26035.3 -03478.2 -07.6094 26266.6
 11 08 2013  09 04  -20.9793 26035.2 -03478.2 -07.6093 26266.5
 11 08 2013  09 05  -20.9790 26035.1 -03478.2 -07.6093 26266.4
 11 08 2013  09 06  -20.9785 26034.9 -03478.1 -07.6093 26266.2
 11 08 2013  09 07  -20.9777 26034.8 -03478.1 -07.6092 26266.1
 11 08 2013  09 08  -20.9773 26034.6 -03478.1 -07.6093 26265.9
 11 08 2013  09 09  -20.9772 26034.5 -03478.2 -07.6095 26265.8
 11 08 2013  09 10  -20.9766 26034.4 -03478.2 -07.6097 26265.7
 11 08 2013  09 11  -20.9761 26034.3 -03478.3 -07.6098 26265.6
 11 08 2013  09 12  -20.9757 26034.1 -03478.3 -07.6099 26265.5
 11 08 2013  09 13  -20.9755 26034.0 -03478.3 -07.6100 26265.3
 11 08 2013  09 14  -20.9751 26034.1 -03478.5 -07.6104 26265.5
 11 08 2013  09 15  -20.9739 26034.1 -03478.6 -07.6106 26265.5
 11 08 2013  09 16  -20.9731 26034.0 -03478.6 -07.6107 26265.4
 11 08 2013  09 17  -20.9724 26034.1 -03478.8 -07.6110 26265.5
 11 08 2013  09 18  -20.9715 26034.0 -03478.8 -07.6111 26265.4
 11 08 2013  09 19  -20.9707 26034.1 -03479.0 -07.6114 26265.5
 11 08 2013  09 20  -20.9703 26034.3 -03479.2 -07.6119 26265.7
 11 08 2013  09 21  -20.9700 26034.2 -03479.5 -07.6124 26265.7
 11 08 2013  09 22  -20.9696 26034.3 -03479.7 -07.6130 26265.8
 11 08 2013  09 23  -20.9692 26034.4 -03479.9 -07.6134 26265.9
 11 08 2013  09 24  -20.9692 26034.5 -03480.1 -07.6138 26266.0
 11 08 2013  09 25  -20.9696 26034.4 -03480.2 -07.6140 26266.0
 11 08 2013  09 26  -20.9697 26034.5 -03480.4 -07.6143 26266.1
 11 08 2013  09 27  -20.9696 26034.3 -03480.3 -07.6143 26265.9
 11 08 2013  09 28  -20.9697 26034.3 -03480.4 -07.6145 26265.9
 11 08 2013  09 29  -20.9696 26034.3 -03480.6 -07.6149 26266.0
 11 08 2013  09 30  -20.9693 26034.3 -03480.7 -07.6152 26266.0
 11 08 2013  09 31  -20.9697 26034.3 -03480.9 -07.6155 26266.0
 11 08 2013  09 32  -20.9700 26034.4 -03481.2 -07.6161 26266.1
 11 08 2013  09 33  -20.9700 26034.4 -03481.4 -07.6165 26266.2
 11 08 2013  09 34  -20.9700 26034.5 -03481.5 -07.6167 26266.2
 11 08 2013  09 35  -20.9696 26034.5 -03481.6 -07.6170 26266.3
 11 08 2013  09 36  -20.9691 26034.5 -03481.6 -07.6171 26266.3
 11 08 2013  09 37  -20.9680 26034.5 -03481.7 -07.6171 26266.3
 11 08 2013  09 38  -20.9693 26034.1 -03481.6 -07.6171 26265.9
 11 08 2013  09 39  -20.9688 26034.1 -03481.7 -07.6174 26265.9
 11 08 2013  09 40  -20.9691 26033.8 -03481.7 -07.6175 26265.6
 11 08 2013  09 41  -20.9687 26033.8 -03481.9 -07.6177 26265.6
 11 08 2013  09 42  -20.9690 26033.7 -03481.9 -07.6179 26265.5
 11 08 2013  09 43  -20.9691 26033.6 -03482.0 -07.6181 26265.4
 11 08 2013  09 44  -20.9684 26033.6 -03482.1 -07.6183 26265.4
 11 08 2013  09 45  -20.9685 26033.5 -03482.1 -07.6183 26265.3
 11 08 2013  09 46  -20.9688 26033.7 -03482.3 -07.6188 26265.6
 11 08 2013  09 47  -20.9690 26033.8 -03482.5 -07.6190 26265.7
 11 08 2013  09 48  -20.9692 26034.0 -03482.6 -07.6193 26265.9
 11 08 2013  09 49  -20.9693 26034.0 -03482.7 -07.6195 26265.9
 11 08 2013  09 50  -20.9696 26034.0 -03482.8 -07.6198 26266.0
 11 08 2013  09 51  -20.9704 26034.1 -03483.0 -07.6201 26266.0
 11 08 2013  09 52  -20.9708 26034.3 -03483.2 -07.6206 26266.3
 11 08 2013  09 53  -20.9707 26034.4 -03483.3 -07.6207 26266.4
 11 08 2013  09 54  -20.9712 26034.4 -03483.3 -07.6208 26266.4
 11 08 2013  09 55  -20.9710 26034.4 -03483.3 -07.6207 26266.4
 11 08 2013  09 56  -20.9717 26034.4 -03483.3 -07.6206 26266.4
 11 08 2013  09 57  -20.9719 26034.6 -03483.4 -07.6209 26266.6
 11 08 2013  09 58  -20.9727 26034.3 -03483.4 -07.6209 26266.3
 11 08 2013  09 59  -20.9729 26034.6 -03483.6 -07.6212 26266.6
 11 08 2013  10 00  -20.9737 26034.6 -03483.7 -07.6215 26266.6
 11 08 2013  10 01  -20.9737 26035.1 -03483.9 -07.6218 26267.1
 11 08 2013  10 02  -20.9735 26035.0 -03483.9 -07.6217 26267.0
 11 08 2013  10 03  -20.9744 26034.8 -03483.8 -07.6217 26266.9
 11 08 2013  10 04  -20.9752 26035.0 -03483.9 -07.6218 26267.1
 11 08 2013  10 05  -20.9748 26035.3 -03484.0 -07.6219 26267.4
 11 08 2013  10 06  -20.9759 26035.6 -03484.1 -07.6221 26267.6
 11 08 2013  10 07  -20.9762 26035.9 -03484.2 -07.6223 26268.0
 11 08 2013  10 08  -20.9765 26036.0 -03484.3 -07.6223 26268.2
 11 08 2013  10 09  -20.9772 26036.5 -03484.5 -07.6227 26268.7
 11 08 2013  10 10  -20.9771 26036.9 -03484.6 -07.6228 26269.0
 11 08 2013  10 11  -20.9777 26037.1 -03484.7 -07.6229 26269.2
 11 08 2013  10 12  -20.9780 26037.4 -03484.8 -07.6230 26269.5
 11 08 2013  10 13  -20.9787 26037.5 -03484.8 -07.6229 26269.7
 11 08 2013  10 14  -20.9798 26037.7 -03484.8 -07.6229 26269.8
 11 08 2013  10 15  -20.9803 26037.9 -03484.8 -07.6229 26270.1
 11 08 2013  10 16  -20.9809 26038.2 -03484.7 -07.6227 26270.3
 11 08 2013  10 17  -20.9817 26038.4 -03484.8 -07.6228 26270.5
 11 08 2013  10 18  -20.9823 26038.4 -03484.8 -07.6227 26270.6
 11 08 2013  10 19  -20.9834 26038.2 -03484.8 -07.6228 26270.4
 11 08 2013  10 20  -20.9837 26038.1 -03484.8 -07.6229 26270.3
 11 08 2013  10 21  -20.9846 26038.5 -03485.1 -07.6233 26270.7
 11 08 2013  10 22  -20.9851 26039.0 -03485.3 -07.6237 26271.2
 11 08 2013  10 23  -20.9856 26039.4 -03485.4 -07.6238 26271.6
 11 08 2013  10 24  -20.9860 26039.7 -03485.4 -07.6237 26271.9
 11 08 2013  10 25  -20.9861 26039.9 -03485.4 -07.6236 26272.1
 11 08 2013  10 26  -20.9869 26039.8 -03485.3 -07.6235 26272.0
 11 08 2013  10 27  -20.9876 26039.7 -03485.3 -07.6235 26271.9
 11 08 2013  10 28  -20.9881 26039.7 -03485.3 -07.6235 26271.9
 11 08 2013  10 29  -20.9886 26039.7 -03485.4 -07.6236 26271.9
 11 08 2013  10 30  -20.9888 26039.8 -03485.4 -07.6237 26272.0
 11 08 2013  10 31  -20.9891 26040.0 -03485.5 -07.6238 26272.2
 11 08 2013  10 32  -20.9899 26040.1 -03485.5 -07.6238 26272.4
 11 08 2013  10 33  -20.9902 26040.5 -03485.6 -07.6239 26272.8
 11 08 2013  10 34  -20.9905 26040.7 -03485.6 -07.6237 26272.9
 11 08 2013  10 35  -20.9904 26041.0 -03485.6 -07.6237 26273.2
 11 08 2013  10 36  -20.9902 26041.1 -03485.6 -07.6236 26273.4
 11 08 2013  10 37  -20.9903 26041.3 -03485.7 -07.6238 26273.6
 11 08 2013  10 38  -20.9904 26041.6 -03485.7 -07.6239 26273.8
 11 08 2013  10 39  -20.9902 26042.1 -03485.9 -07.6241 26274.3
 11 08 2013  10 40  -20.9905 26042.3 -03486.0 -07.6243 26274.6
 11 08 2013  10 41  -20.9909 26042.6 -03486.1 -07.6243 26274.9
 11 08 2013  10 42  -20.9910 26043.0 -03486.1 -07.6242 26275.3
 11 08 2013  10 43  -20.9905 26043.2 -03486.0 -07.6240 26275.5
 11 08 2013  10 44  -20.9906 26043.4 -03485.9 -07.6237 26275.7
 11 08 2013  10 45  -20.9904 26043.6 -03485.7 -07.6231 26275.8
 11 08 2013  10 46  -20.9910 26043.6 -03485.6 -07.6229 26275.8
 11 08 2013  10 47  -20.9922 26043.8 -03485.6 -07.6229 26276.0
 11 08 2013  10 48  -20.9929 26044.0 -03485.6 -07.6229 26276.3
 11 08 2013  10 49  -20.9940 26044.3 -03485.7 -07.6230 26276.5
 11 08 2013  10 50  -20.9955 26044.5 -03485.8 -07.6231 26276.7
 11 08 2013  10 51  -20.9966 26044.8 -03485.8 -07.6230 26277.0
 11 08 2013  10 52  -20.9974 26045.3 -03485.8 -07.6230 26277.5
 11 08 2013  10 53  -20.9981 26045.4 -03485.6 -07.6226 26277.6
 11 08 2013  10 54  -20.9988 26045.6 -03485.5 -07.6222 26277.8
 11 08 2013  10 55  -21.0000 26045.6 -03485.4 -07.6219 26277.8
 11 08 2013  10 56  -21.0009 26045.5 -03485.2 -07.6215 26277.7
 11 08 2013  10 57  -21.0010 26045.7 -03485.1 -07.6213 26277.8
 11 08 2013  10 58  -21.0012 26045.8 -03485.0 -07.6211 26277.9
 11 08 2013  10 59  -21.0015 26046.0 -03485.0 -07.6210 26278.1
 11 08 2013  11 00  -21.0021 26046.2 -03485.0 -07.6209 26278.4
 11 08 2013  11 01  -21.0023 26046.5 -03484.9 -07.6206 26278.6
 11 08 2013  11 02  -21.0021 26046.6 -03484.8 -07.6203 26278.7
 11 08 2013  11 03  -21.0026 26046.7 -03484.7 -07.6201 26278.8
 11 08 2013  11 04  -21.0031 26046.8 -03484.6 -07.6200 26278.9
 11 08 2013  11 05  -21.0038 26047.1 -03484.7 -07.6201 26279.2
 11 08 2013  11 06  -21.0046 26047.5 -03484.8 -07.6202 26279.6
 11 08 2013  11 07  -21.0053 26047.9 -03484.9 -07.6203 26280.0
 11 08 2013  11 08  -21.0058 26048.2 -03485.0 -07.6203 26280.3
 11 08 2013  11 09  -21.0060 26048.6 -03485.0 -07.6201 26280.7
 11 08 2013  11 10  -21.0064 26048.9 -03484.9 -07.6199 26280.9
 11 08 2013  11 11  -21.0070 26049.1 -03484.8 -07.6197 26281.1
 11 08 2013  11 12  -21.0077 26049.2 -03484.7 -07.6195 26281.3
 11 08 2013  11 13  -21.0078 26049.4 -03484.6 -07.6192 26281.5
 11 08 2013  11 14  -21.0076 26049.5 -03484.5 -07.6188 26281.5
 11 08 2013  11 15  -21.0078 26049.4 -03484.2 -07.6183 26281.4
 11 08 2013  11 16  -21.0083 26049.4 -03484.1 -07.6180 26281.4
 11 08 2013  11 17  -21.0088 26049.6 -03484.0 -07.6178 26281.6
 11 08 2013  11 18  -21.0092 26049.5 -03483.8 -07.6174 26281.4
 11 08 2013  11 19  -21.0100 26049.3 -03483.6 -07.6171 26281.2
 11 08 2013  11 20  -21.0108 26049.4 -03483.6 -07.6171 26281.3
 11 08 2013  11 21  -21.0117 26049.5 -03483.6 -07.6170 26281.4
 11 08 2013  11 22  -21.0123 26049.6 -03483.5 -07.6168 26281.5
 11 08 2013  11 23  -21.0124 26050.1 -03483.5 -07.6166 26282.0
 11 08 2013  11 24  -21.0125 26050.4 -03483.3 -07.6161 26282.3
 11 08 2013  11 25  -21.0123 26050.6 -03483.2 -07.6157 26282.4
 11 08 2013  11 26  -21.0126 26050.7 -03483.0 -07.6152 26282.5
 11 08 2013  11 27  -21.0132 26050.5 -03482.7 -07.6148 26282.3
 11 08 2013  11 28  -21.0138 26050.5 -03482.6 -07.6144 26282.3
 11 08 2013  11 29  -21.0145 26050.4 -03482.5 -07.6143 26282.1
 11 08 2013  11 30  -21.0149 26050.5 -03482.4 -07.6140 26282.2
 11 08 2013  11 31  -21.0148 26050.7 -03482.2 -07.6137 26282.4
 11 08 2013  11 32  -21.0135 26051.3 -03482.1 -07.6133 26283.0
 11 08 2013  11 33  -21.0131 26051.9 -03482.0 -07.6128 26283.6
 11 08 2013  11 34  -21.0130 26052.0 -03481.6 -07.6120 26283.6
 11 08 2013  11 35  -21.0145 26051.5 -03481.2 -07.6112 26283.0
 11 08 2013  11 36  -21.0162 26050.9 -03480.9 -07.6108 26282.4
 11 08 2013  11 37  -21.0164 26050.7 -03480.8 -07.6106 26282.2
 11 08 2013  11 38  -21.0160 26050.8 -03480.8 -07.6106 26282.3
 11 08 2013  11 39  -21.0155 26051.2 -03480.8 -07.6105 26282.7
 11 08 2013  11 40  -21.0153 26051.5 -03480.7 -07.6102 26283.0
 11 08 2013  11 41  -21.0150 26052.2 -03480.9 -07.6103 26283.7
 11 08 2013  11 42  -21.0156 26052.4 -03480.9 -07.6102 26283.9
 11 08 2013  11 43  -21.0156 26052.3 -03480.6 -07.6097 26283.8
 11 08 2013  11 44  -21.0150 26052.9 -03480.6 -07.6096 26284.4
 11 08 2013  11 45  -21.0148 26052.9 -03480.5 -07.6093 26284.4
 11 08 2013  11 46  -21.0151 26053.0 -03480.4 -07.6091 26284.4
 11 08 2013  11 47  -21.0153 26053.2 -03480.4 -07.6090 26284.6
 11 08 2013  11 48  -21.0160 26053.2 -03480.4 -07.6090 26284.7
 11 08 2013  11 49  -21.0162 26053.6 -03480.4 -07.6088 26285.0
 11 08 2013  11 50  -21.0164 26053.8 -03480.4 -07.6087 26285.3
 11 08 2013  11 51  -21.0167 26054.3 -03480.4 -07.6087 26285.7
 11 08 2013  11 52  -21.0168 26054.6 -03480.4 -07.6085 26286.1
 11 08 2013  11 53  -21.0174 26054.4 -03480.1 -07.6080 26285.7
 11 08 2013  11 54  -21.0181 26054.0 -03479.8 -07.6075 26285.4
 11 08 2013  11 55  -21.0181 26054.4 -03479.8 -07.6073 26285.7
 11 08 2013  11 56  -21.0177 26054.6 -03479.7 -07.6070 26286.0
 11 08 2013  11 57  -21.0177 26055.1 -03479.7 -07.6070 26286.5
 11 08 2013  11 58  -21.0178 26055.5 -03479.7 -07.6068 26286.8
 11 08 2013  11 59  -21.0182 26055.9 -03479.6 -07.6065 26287.2
 11 08 2013  12 00  -21.0182 26056.5 -03479.5 -07.6061 26287.8
 11 08 2013  12 01  -21.0177 26056.9 -03479.3 -07.6055 26288.2
 11 08 2013  12 02  -21.0182 26055.6 -03478.5 -07.6043 26286.8
 11 08 2013  12 03  -21.0197 26053.9 -03477.8 -07.6032 26284.9
 11 08 2013  12 04  -21.0209 26053.0 -03477.7 -07.6031 26284.1
 11 08 2013  12 05  -21.0209 26053.0 -03477.8 -07.6035 26284.1
 11 08 2013  12 06  -21.0204 26053.0 -03478.0 -07.6039 26284.1
 11 08 2013  12 07  -21.0199 26054.0 -03478.5 -07.6047 26285.2
 11 08 2013  12 08  -21.0190 26055.6 -03479.1 -07.6056 26286.8
 11 08 2013  12 09  -21.0183 26056.4 -03479.3 -07.6057 26287.7
 11 08 2013  12 10  -21.0190 26056.9 -03479.4 -07.6057 26288.2
 11 08 2013  12 11  -21.0194 26057.2 -03479.4 -07.6056 26288.5
 11 08 2013  12 12  -21.0198 26058.0 -03479.5 -07.6056 26289.3
 11 08 2013  12 13  -21.0206 26057.4 -03479.1 -07.6050 26288.7
 11 08 2013  12 14  -21.0219 26057.0 -03478.9 -07.6047 26288.2
 11 08 2013  12 15  -21.0236 26056.4 -03478.7 -07.6044 26287.6
 11 08 2013  12 16  -21.0237 26056.6 -03478.8 -07.6046 26287.8
 11 08 2013  12 17  -21.0231 26057.2 -03479.0 -07.6049 26288.4
 11 08 2013  12 18  -21.0230 26057.6 -03479.1 -07.6049 26288.9
 11 08 2013  12 19  -21.0231 26057.9 -03479.1 -07.6047 26289.1
 11 08 2013  12 20  -21.0233 26057.7 -03478.9 -07.6043 26288.9
 11 08 2013  12 21  -21.0233 26058.0 -03478.8 -07.6042 26289.2
 11 08 2013  12 22  -21.0237 26057.9 -03478.7 -07.6040 26289.1
 11 08 2013  12 23  -21.0241 26057.8 -03478.7 -07.6040 26288.9
 11 08 2013  12 24  -21.0243 26057.1 -03478.5 -07.6037 26288.3
 11 08 2013  12 25  -21.0248 26057.1 -03478.6 -07.6040 26288.3
 11 08 2013  12 26  -21.0250 26058.0 -03479.0 -07.6047 26289.2
 11 08 2013  12 27  -21.0247 26058.5 -03479.2 -07.6049 26289.7
 11 08 2013  12 28  -21.0246 26059.2 -03479.4 -07.6051 26290.5
 11 08 2013  12 29  -21.0247 26059.8 -03479.5 -07.6051 26291.1
 11 08 2013  12 30  -21.0251 26060.2 -03479.4 -07.6048 26291.5
 11 08 2013  12 31  -21.0262 26060.3 -03479.3 -07.6045 26291.6
 11 08 2013  12 32  -21.0269 26061.2 -03479.4 -07.6044 26292.4
 11 08 2013  12 33  -21.0270 26061.0 -03479.0 -07.6038 26292.2
 11 08 2013  12 34  -21.0281 26061.3 -03478.9 -07.6035 26292.4
 11 08 2013  12 35  -21.0284 26061.1 -03478.6 -07.6029 26292.2
 11 08 2013  12 36  -21.0290 26061.1 -03478.5 -07.6026 26292.2
 11 08 2013  12 37  -21.0292 26061.2 -03478.4 -07.6024 26292.3
 11 08 2013  12 38  -21.0293 26061.6 -03478.5 -07.6024 26292.7
 11 08 2013  12 39  -21.0294 26062.3 -03478.6 -07.6025 26293.4
 11 08 2013  12 40  -21.0292 26062.9 -03478.7 -07.6024 26294.0
 11 08 2013  12 41  -21.0293 26063.2 -03478.6 -07.6022 26294.4
 11 08 2013  12 42  -21.0297 26063.8 -03478.6 -07.6021 26294.9
 11 08 2013  12 43  -21.0302 26064.2 -03478.6 -07.6018 26295.3
 11 08 2013  12 44  -21.0305 26064.6 -03478.5 -07.6015 26295.7
 11 08 2013  12 45  -21.0309 26064.8 -03478.3 -07.6010 26295.8
 11 08 2013  12 46  -21.0314 26064.7 -03478.1 -07.6006 26295.8
 11 08 2013  12 47  -21.0321 26064.5 -03477.8 -07.6002 26295.5
 11 08 2013  12 48  -21.0327 26064.8 -03477.8 -07.6000 26295.8
 11 08 2013  12 49  -21.0331 26065.4 -03477.9 -07.6000 26296.4
 11 08 2013  12 50  -21.0338 26065.9 -03477.9 -07.6000 26296.9
 11 08 2013  12 51  -21.0346 26066.5 -03478.0 -07.5999 26297.5
 11 08 2013  12 52  -21.0353 26067.1 -03478.0 -07.5997 26298.1
 11 08 2013  12 53  -21.0357 26067.5 -03477.9 -07.5994 26298.5
 11 08 2013  12 54  -21.0359 26067.8 -03477.7 -07.5990 26298.7
 11 08 2013  12 55  -21.0361 26067.9 -03477.5 -07.5985 26298.8
 11 08 2013  12 56  -21.0364 26067.9 -03477.4 -07.5981 26298.8
 11 08 2013  12 57  -21.0365 26067.7 -03477.1 -07.5977 26298.6
 11 08 2013  12 58  -21.0366 26067.4 -03476.9 -07.5974 26298.2
 11 08 2013  12 59  -21.0369 26067.2 -03476.8 -07.5973 26298.1
 11 08 2013  13 00  -21.0373 26067.3 -03476.9 -07.5973 26298.2
 11 08 2013  13 01  -21.0381 26067.6 -03477.0 -07.5975 26298.4
 11 08 2013  13 02  -21.0386 26067.7 -03477.0 -07.5975 26298.6
 11 08 2013  13 03  -21.0391 26068.0 -03477.1 -07.5975 26298.8
 11 08 2013  13 04  -21.0395 26068.1 -03477.1 -07.5975 26298.9
 11 08 2013  13 05  -21.0399 26068.2 -03477.1 -07.5976 26299.1
 11 08 2013  13 06  -21.0403 26068.3 -03477.1 -07.5975 26299.1
 11 08 2013  13 07  -21.0405 26068.4 -03477.1 -07.5974 26299.3
 11 08 2013  13 08  -21.0408 26068.7 -03477.2 -07.5976 26299.6
 11 08 2013  13 09  -21.0409 26068.8 -03477.2 -07.5976 26299.7
 11 08 2013  13 10  -21.0410 26069.0 -03477.2 -07.5976 26299.9
 11 08 2013  13 11  -21.0412 26069.2 -03477.3 -07.5977 26300.1
 11 08 2013  13 12  -21.0413 26069.4 -03477.4 -07.5977 26300.3
 11 08 2013  13 13  -21.0415 26069.6 -03477.4 -07.5977 26300.5
 11 08 2013  13 14  -21.0418 26069.8 -03477.4 -07.5977 26300.7
 11 08 2013  13 15  -21.0422 26070.2 -03477.4 -07.5977 26301.1
 11 08 2013  13 16  -21.0424 26070.5 -03477.4 -07.5976 26301.4
 11 08 2013  13 17  -21.0428 26070.7 -03477.4 -07.5974 26301.6
 11 08 2013  13 18  -21.0432 26070.7 -03477.3 -07.5972 26301.5
 11 08 2013  13 19  -21.0436 26070.7 -03477.2 -07.5970 26301.6
 11 08 2013  13 20  -21.0441 26070.7 -03477.2 -07.5969 26301.6
 11 08 2013  13 21  -21.0447 26070.8 -03477.1 -07.5968 26301.6
 11 08 2013  13 22  -21.0452 26070.9 -03477.0 -07.5966 26301.7
 11 08 2013  13 23  -21.0458 26071.0 -03477.1 -07.5966 26301.9
 11 08 2013  13 24  -21.0464 26071.0 -03477.0 -07.5964 26301.8
 11 08 2013  13 25  -21.0468 26071.2 -03477.0 -07.5965 26302.0
 11 08 2013  13 26  -21.0472 26071.3 -03476.9 -07.5963 26302.1
 11 08 2013  13 27  -21.0476 26071.4 -03476.9 -07.5961 26302.2
 11 08 2013  13 28  -21.0480 26071.6 -03476.9 -07.5962 26302.4
 11 08 2013  13 29  -21.0485 26071.6 -03476.9 -07.5961 26302.4
 11 08 2013  13 30  -21.0489 26071.6 -03476.8 -07.5959 26302.4
 11 08 2013  13 31  -21.0491 26071.6 -03476.7 -07.5957 26302.4
 11 08 2013  13 32  -21.0494 26071.5 -03476.6 -07.5955 26302.3
 11 08 2013  13 33  -21.0499 26071.5 -03476.5 -07.5954 26302.3
 11 08 2013  13 34  -21.0501 26071.7 -03476.5 -07.5953 26302.5
 11 08 2013  13 35  -21.0501 26071.8 -03476.5 -07.5952 26302.6
 11 08 2013  13 36  -21.0502 26071.9 -03476.4 -07.5950 26302.6
 11 08 2013  13 37  -21.0504 26072.0 -03476.4 -07.5949 26302.8
 11 08 2013  13 38  -21.0507 26072.4 -03476.5 -07.5950 26303.2
 11 08 2013  13 39  -21.0508 26072.7 -03476.5 -07.5949 26303.5
 11 08 2013  13 40  -21.0510 26072.8 -03476.4 -07.5947 26303.5
 11 08 2013  13 41  -21.0512 26072.8 -03476.3 -07.5945 26303.5
 11 08 2013  13 42  -21.0513 26072.7 -03476.2 -07.5943 26303.4
 11 08 2013  13 43  -21.0513 26072.9 -03476.2 -07.5942 26303.6
 11 08 2013  13 44  -21.0516 26073.1 -03476.2 -07.5942 26303.8
 11 08 2013  13 45  -21.0518 26073.9 -03476.4 -07.5943 26304.6
 11 08 2013  13 46  -21.0520 26074.3 -03476.3 -07.5940 26305.0
 11 08 2013  13 47  -21.0517 26074.2 -03476.0 -07.5934 26304.9
 11 08 2013  13 48  -21.0515 26073.9 -03475.7 -07.5929 26304.6
 11 08 2013  13 49  -21.0520 26073.7 -03475.5 -07.5925 26304.3
 11 08 2013  13 50  -21.0521 26073.8 -03475.4 -07.5922 26304.4
 11 08 2013  13 51  -21.0522 26073.9 -03475.4 -07.5922 26304.5
 11 08 2013  13 52  -21.0525 26073.8 -03475.2 -07.5919 26304.4
 11 08 2013  13 53  -21.0529 26074.0 -03475.2 -07.5918 26304.6
 11 08 2013  13 54  -21.0534 26074.4 -03475.3 -07.5918 26304.9
 11 08 2013  13 55  -21.0539 26074.8 -03475.2 -07.5916 26305.3
 11 08 2013  13 56  -21.0543 26075.2 -03475.2 -07.5914 26305.8
 11 08 2013  13 57  -21.0546 26075.6 -03475.1 -07.5911 26306.2
 11 08 2013  13 58  -21.0544 26075.6 -03474.9 -07.5907 26306.1
 11 08 2013  13 59  -21.0546 26075.7 -03474.8 -07.5903 26306.2
 11 08 2013  14 00  -21.0545 26075.5 -03474.6 -07.5900 26306.0
 11 08 2013  14 01  -21.0546 26075.6 -03474.5 -07.5898 26306.1
 11 08 2013  14 02  -21.0548 26075.9 -03474.5 -07.5897 26306.4
 11 08 2013  14 03  -21.0548 26076.1 -03474.4 -07.5894 26306.5
 11 08 2013  14 04  -21.0548 26076.5 -03474.3 -07.5892 26306.9
 11 08 2013  14 05  -21.0550 26076.7 -03474.2 -07.5889 26307.1
 11 08 2013  14 06  -21.0553 26076.6 -03474.1 -07.5886 26307.0
 11 08 2013  14 07  -21.0556 26076.6 -03473.9 -07.5883 26307.0
 11 08 2013  14 08  -21.0558 26076.6 -03473.8 -07.5880 26307.0
 11 08 2013  14 09  -21.0560 26076.6 -03473.7 -07.5878 26307.0
 11 08 2013  14 10  -21.0564 26076.9 -03473.7 -07.5877 26307.3
 11 08 2013  14 11  -21.0565 26076.8 -03473.6 -07.5874 26307.2
 11 08 2013  14 12  -21.0567 26076.8 -03473.5 -07.5873 26307.1
 11 08 2013  14 13  -21.0568 26076.7 -03473.4 -07.5870 26307.0
 11 08 2013  14 14  -21.0571 26076.7 -03473.3 -07.5869 26307.0
 11 08 2013  14 15  -21.0571 26077.0 -03473.4 -07.5870 26307.3
 11 08 2013  14 16  -21.0572 26077.2 -03473.4 -07.5869 26307.5
 11 08 2013  14 17  -21.0575 26077.3 -03473.4 -07.5868 26307.6
 11 08 2013  14 18  -21.0577 26077.6 -03473.4 -07.5868 26307.9
 11 08 2013  14 19  -21.0581 26078.0 -03473.4 -07.5867 26308.3
 11 08 2013  14 20  -21.0586 26078.7 -03473.5 -07.5867 26309.0
 11 08 2013  14 21  -21.0591 26079.3 -03473.5 -07.5866 26309.7
 11 08 2013  14 22  -21.0592 26079.5 -03473.3 -07.5861 26309.7
 11 08 2013  14 23  -21.0592 26079.0 -03472.9 -07.5852 26309.2
 11 08 2013  14 24  -21.0589 26078.6 -03472.6 -07.5847 26308.8
 11 08 2013  14 25  -21.0585 26078.2 -03472.3 -07.5844 26308.3
 11 08 2013  14 26  -21.0582 26077.9 -03472.3 -07.5843 26308.1
 11 08 2013  14 27  -21.0581 26078.0 -03472.4 -07.5845 26308.2
 11 08 2013  14 28  -21.0584 26078.3 -03472.6 -07.5848 26308.5
 11 08 2013  14 29  -21.0586 26078.7 -03472.7 -07.5851 26308.9
 11 08 2013  14 30  -21.0588 26079.1 -03472.8 -07.5851 26309.4
 11 08 2013  14 31  -21.0592 26079.7 -03472.9 -07.5851 26309.9
 11 08 2013  14 32  -21.0596 26080.3 -03472.9 -07.5850 26310.5
 11 08 2013  14 33  -21.0599 26081.0 -03472.9 -07.5848 26311.2
 11 08 2013  14 34  -21.0607 26081.4 -03472.7 -07.5842 26311.6
 11 08 2013  14 35  -21.0618 26081.2 -03472.2 -07.5832 26311.3
 11 08 2013  14 36  -21.0620 26080.8 -03471.6 -07.5820 26310.9
 11 08 2013  14 37  -21.0612 26080.5 -03471.1 -07.5810 26310.5
 11 08 2013  14 38  -21.0611 26080.6 -03471.0 -07.5808 26310.6
 11 08 2013  14 39  -21.0613 26081.2 -03471.1 -07.5808 26311.1
 11 08 2013  14 40  -21.0616 26081.6 -03471.1 -07.5808 26311.6
 11 08 2013  14 41  -21.0618 26081.6 -03470.8 -07.5801 26311.5
 11 08 2013  14 42  -21.0617 26081.4 -03470.5 -07.5795 26311.3
 11 08 2013  14 43  -21.0617 26080.9 -03470.1 -07.5788 26310.8
 11 08 2013  14 44  -21.0614 26080.4 -03469.7 -07.5781 26310.2
 11 08 2013  14 45  -21.0610 26080.2 -03469.5 -07.5776 26309.9
 11 08 2013  14 46  -21.0607 26080.0 -03469.3 -07.5774 26309.7
 11 08 2013  14 47  -21.0606 26079.7 -03469.2 -07.5772 26309.5
 11 08 2013  14 48  -21.0609 26079.7 -03469.1 -07.5771 26309.4
 11 08 2013  14 49  -21.0610 26079.6 -03469.1 -07.5769 26309.3
 11 08 2013  14 50  -21.0612 26079.8 -03469.1 -07.5769 26309.5
 11 08 2013  14 51  -21.0615 26080.0 -03469.1 -07.5768 26309.7
 11 08 2013  14 52  -21.0616 26080.2 -03469.0 -07.5765 26309.9
 11 08 2013  14 53  -21.0615 26080.2 -03468.8 -07.5761 26309.9
 11 08 2013  14 54  -21.0613 26080.2 -03468.6 -07.5757 26309.8
 11 08 2013  14 55  -21.0611 26079.9 -03468.3 -07.5752 26309.5
 11 08 2013  14 56  -21.0610 26079.8 -03468.2 -07.5749 26309.4
 11 08 2013  14 57  -21.0609 26079.7 -03468.0 -07.5746 26309.2
 11 08 2013  14 58  -21.0606 26079.2 -03467.8 -07.5742 26308.8
 11 08 2013  14 59  -21.0604 26079.1 -03467.7 -07.5741 26308.6
 11 08 2013  15 00  -21.0605 26079.1 -03467.7 -07.5740 26308.6
 11 08 2013  15 01  -21.0604 26078.8 -03467.5 -07.5737 26308.3
 11 08 2013  15 02  -21.0602 26078.7 -03467.3 -07.5734 26308.2
 11 08 2013  15 03  -21.0602 26078.5 -03467.2 -07.5733 26308.0
 11 08 2013  15 04  -21.0597 26078.3 -03467.1 -07.5730 26307.7
 11 08 2013  15 05  -21.0595 26078.4 -03467.2 -07.5731 26307.8
 11 08 2013  15 06  -21.0592 26078.4 -03467.2 -07.5732 26307.9
 11 08 2013  15 07  -21.0591 26078.5 -03467.2 -07.5732 26308.0
 11 08 2013  15 08  -21.0590 26078.9 -03467.3 -07.5733 26308.4
 11 08 2013  15 09  -21.0590 26079.3 -03467.4 -07.5734 26308.8
 11 08 2013  15 10  -21.0589 26079.7 -03467.4 -07.5733 26309.2
 11 08 2013  15 11  -21.0588 26080.2 -03467.4 -07.5732 26309.6
 11 08 2013  15 12  -21.0589 26080.5 -03467.4 -07.5730 26310.0
 11 08 2013  15 13  -21.0588 26080.8 -03467.2 -07.5726 26310.2
 11 08 2013  15 14  -21.0587 26080.7 -03467.0 -07.5722 26310.1
 11 08 2013  15 15  -21.0585 26080.8 -03466.8 -07.5717 26310.2
 11 08 2013  15 16  -21.0580 26080.3 -03466.4 -07.5710 26309.7
 11 08 2013  15 17  -21.0580 26080.3 -03466.2 -07.5706 26309.6
 11 08 2013  15 18  -21.0579 26080.1 -03465.9 -07.5700 26309.4
 11 08 2013  15 19  -21.0576 26079.7 -03465.5 -07.5692 26308.9
 11 08 2013  15 20  -21.0566 26079.2 -03465.2 -07.5686 26308.4
 11 08 2013  15 21  -21.0559 26079.4 -03465.2 -07.5686 26308.6
 11 08 2013  15 22  -21.0557 26080.0 -03465.5 -07.5691 26309.2
 11 08 2013  15 23  -21.0560 26080.7 -03465.8 -07.5696 26310.0
 11 08 2013  15 24  -21.0566 26081.3 -03466.0 -07.5697 26310.6
 11 08 2013  15 25  -21.0572 26081.5 -03465.9 -07.5695 26310.8
 11 08 2013  15 26  -21.0577 26081.6 -03465.7 -07.5690 26310.8
 11 08 2013  15 27  -21.0585 26081.2 -03465.4 -07.5685 26310.4
 11 08 2013  15 28  -21.0590 26081.3 -03465.2 -07.5681 26310.5
 11 08 2013  15 29  -21.0592 26081.8 -03465.3 -07.5681 26311.0
 11 08 2013  15 30  -21.0590 26082.3 -03465.3 -07.5679 26311.4
 11 08 2013  15 31  -21.0589 26082.5 -03465.2 -07.5676 26311.6
 11 08 2013  15 32  -21.0586 26082.1 -03464.8 -07.5670 26311.2
 11 08 2013  15 33  -21.0587 26082.0 -03464.7 -07.5668 26311.1
 11 08 2013  15 34  -21.0587 26081.4 -03464.4 -07.5662 26310.5
 11 08 2013  15 35  -21.0592 26081.5 -03464.4 -07.5662 26310.6
 11 08 2013  15 36  -21.0597 26081.4 -03464.2 -07.5660 26310.5
 11 08 2013  15 37  -21.0601 26081.4 -03464.1 -07.5656 26310.4
 11 08 2013  15 38  -21.0604 26081.2 -03463.9 -07.5652 26310.2
 11 08 2013  15 39  -21.0606 26081.1 -03463.7 -07.5648 26310.0
 11 08 2013  15 40  -21.0610 26081.0 -03463.5 -07.5645 26310.0
 11 08 2013  15 41  -21.0614 26081.0 -03463.4 -07.5642 26309.9
 11 08 2013  15 42  -21.0619 26081.0 -03463.3 -07.5640 26310.0
 11 08 2013  15 43  -21.0625 26080.9 -03463.1 -07.5637 26309.8
 11 08 2013  15 44  -21.0629 26080.6 -03462.9 -07.5632 26309.5
 11 08 2013  15 45  -21.0633 26080.2 -03462.6 -07.5628 26309.1
 11 08 2013  15 46  -21.0638 26080.0 -03462.5 -07.5627 26308.9
 11 08 2013  15 47  -21.0641 26079.9 -03462.4 -07.5625 26308.7
 11 08 2013  15 48  -21.0647 26080.0 -03462.5 -07.5625 26308.8
 11 08 2013  15 49  -21.0654 26080.2 -03462.5 -07.5626 26309.1
 11 08 2013  15 50  -21.0660 26080.4 -03462.5 -07.5626 26309.3
 11 08 2013  15 51  -21.0665 26080.6 -03462.5 -07.5624 26309.4
 11 08 2013  15 52  -21.0669 26080.5 -03462.3 -07.5621 26309.3
 11 08 2013  15 53  -21.0672 26080.5 -03462.2 -07.5618 26309.3
 11 08 2013  15 54  -21.0676 26080.4 -03462.0 -07.5615 26309.2
 11 08 2013  15 55  -21.0679 26080.1 -03461.8 -07.5611 26308.9
 11 08 2013  15 56  -21.0683 26080.0 -03461.6 -07.5608 26308.7
 11 08 2013  15 57  -21.0686 26079.7 -03461.4 -07.5603 26308.4
 11 08 2013  15 58  -21.0691 26079.7 -03461.3 -07.5601 26308.4
 11 08 2013  15 59  -21.0695 26079.5 -03461.1 -07.5598 26308.1
 11 08 2013  16 00  -21.0696 26079.5 -03461.0 -07.5596 26308.1
 11 08 2013  16 01  -21.0696 26079.0 -03460.7 -07.5591 26307.6
 11 08 2013  16 02  -21.0697 26078.8 -03460.6 -07.5588 26307.4
 11 08 2013  16 03  -21.0699 26078.6 -03460.5 -07.5586 26307.2
 11 08 2013  16 04  -21.0701 26078.3 -03460.3 -07.5583 26306.9
 11 08 2013  16 05  -21.0704 26078.1 -03460.1 -07.5580 26306.7
 11 08 2013  16 06  -21.0707 26078.0 -03460.0 -07.5577 26306.5
 11 08 2013  16 07  -21.0710 26077.9 -03459.8 -07.5574 26306.4
 11 08 2013  16 08  -21.0713 26078.0 -03459.8 -07.5574 26306.5
 11 08 2013  16 09  -21.0715 26078.1 -03459.8 -07.5572 26306.6
 11 08 2013  16 10  -21.0717 26078.4 -03459.7 -07.5571 26306.9
 11 08 2013  16 11  -21.0718 26078.3 -03459.6 -07.5568 26306.8
 11 08 2013  16 12  -21.0722 26078.4 -03459.5 -07.5566 26306.8
 11 08 2013  16 13  -21.0726 26078.6 -03459.5 -07.5565 26307.0
 11 08 2013  16 14  -21.0731 26078.8 -03459.4 -07.5563 26307.3
 11 08 2013  16 15  -21.0732 26079.1 -03459.3 -07.5561 26307.6
 11 08 2013  16 16  -21.0734 26079.3 -03459.2 -07.5558 26307.7
 11 08 2013  16 17  -21.0733 26079.3 -03459.0 -07.5553 26307.7
 11 08 2013  16 18  -21.0731 26079.1 -03458.7 -07.5547 26307.4
 11 08 2013  16 19  -21.0727 26078.5 -03458.4 -07.5542 26306.9
 11 08 2013  16 20  -21.0725 26078.0 -03458.1 -07.5537 26306.3
 11 08 2013  16 21  -21.0725 26077.8 -03458.0 -07.5535 26306.0
 11 08 2013  16 22  -21.0726 26077.7 -03458.0 -07.5534 26306.0
 11 08 2013  16 23  -21.0728 26077.9 -03458.0 -07.5535 26306.1
 11 08 2013  16 24  -21.0730 26078.1 -03458.0 -07.5535 26306.4
 11 08 2013  16 25  -21.0730 26078.2 -03458.0 -07.5535 26306.4
 11 08 2013  16 26  -21.0731 26078.0 -03457.9 -07.5531 26306.3
 11 08 2013  16 27  -21.0733 26077.8 -03457.7 -07.5529 26306.1
 11 08 2013  16 28  -21.0734 26077.6 -03457.6 -07.5526 26305.9
 11 08 2013  16 29  -21.0735 26077.5 -03457.4 -07.5524 26305.7
 11 08 2013  16 30  -21.0737 26077.6 -03457.4 -07.5523 26305.8
 11 08 2013  16 31  -21.0740 26077.7 -03457.4 -07.5522 26305.9
 11 08 2013  16 32  -21.0742 26078.0 -03457.4 -07.5522 26306.2
 11 08 2013  16 33  -21.0746 26078.2 -03457.4 -07.5520 26306.4
 11 08 2013  16 34  -21.0748 26078.5 -03457.3 -07.5518 26306.7
 11 08 2013  16 35  -21.0746 26078.5 -03457.2 -07.5515 26306.7
 11 08 2013  16 36  -21.0745 26078.4 -03456.9 -07.5511 26306.6
 11 08 2013  16 37  -21.0744 26078.1 -03456.7 -07.5506 26306.2
 11 08 2013  16 38  -21.0745 26077.9 -03456.4 -07.5501 26306.0
 11 08 2013  16 39  -21.0745 26077.7 -03456.3 -07.5498 26305.8
 11 08 2013  16 40  -21.0745 26077.3 -03456.0 -07.5494 26305.3
 11 08 2013  16 41  -21.0744 26076.6 -03455.7 -07.5489 26304.6
 11 08 2013  16 42  -21.0744 26076.3 -03455.6 -07.5488 26304.3
 11 08 2013  16 43  -21.0743 26076.1 -03455.6 -07.5488 26304.0
 11 08 2013  16 44  -21.0746 26076.1 -03455.7 -07.5490 26304.0
 11 08 2013  16 45  -21.0748 26076.2 -03455.7 -07.5491 26304.1
 11 08 2013  16 46  -21.0751 26076.3 -03455.8 -07.5492 26304.3
 11 08 2013  16 47  -21.0751 26075.8 -03455.5 -07.5488 26303.8
 11 08 2013  16 48  -21.0752 26075.6 -03455.4 -07.5486 26303.5
 11 08 2013  16 49  -21.0752 26075.3 -03455.3 -07.5485 26303.2
 11 08 2013  16 50  -21.0754 26075.3 -03455.4 -07.5486 26303.2
 11 08 2013  16 51  -21.0760 26075.5 -03455.5 -07.5487 26303.5
 11 08 2013  16 52  -21.0761 26075.8 -03455.6 -07.5488 26303.7
 11 08 2013  16 53  -21.0764 26076.0 -03455.6 -07.5489 26303.9
 11 08 2013  16 54  -21.0764 26076.0 -03455.5 -07.5488 26303.9
 11 08 2013  16 55  -21.0760 26075.7 -03455.4 -07.5484 26303.7
 11 08 2013  16 56  -21.0759 26075.5 -03455.3 -07.5483 26303.5
 11 08 2013  16 57  -21.0759 26075.0 -03455.0 -07.5479 26302.9
 11 08 2013  16 58  -21.0758 26074.4 -03454.7 -07.5475 26302.3
 11 08 2013  16 59  -21.0758 26074.0 -03454.6 -07.5473 26301.9
 11 08 2013  17 00  -21.0758 26074.0 -03454.7 -07.5475 26301.9
 11 08 2013  17 01  -21.0759 26074.4 -03454.9 -07.5478 26302.3
 11 08 2013  17 02  -21.0759 26074.7 -03455.1 -07.5481 26302.6
 11 08 2013  17 03  -21.0759 26074.8 -03455.1 -07.5481 26302.7
 11 08 2013  17 04  -21.0756 26074.6 -03455.0 -07.5479 26302.5
 11 08 2013  17 05  -21.0754 26074.4 -03454.9 -07.5479 26302.2
 11 08 2013  17 06  -21.0751 26074.1 -03454.8 -07.5477 26302.0
 11 08 2013  17 07  -21.0751 26074.1 -03454.9 -07.5478 26302.0
 11 08 2013  17 08  -21.0752 26074.1 -03454.9 -07.5480 26302.0
 11 08 2013  17 09  -21.0753 26074.1 -03455.0 -07.5480 26302.0
 11 08 2013  17 10  -21.0753 26073.8 -03454.9 -07.5479 26301.7
 11 08 2013  17 11  -21.0750 26073.1 -03454.6 -07.5475 26301.0
 11 08 2013  17 12  -21.0743 26072.4 -03454.4 -07.5472 26300.2
 11 08 2013  17 13  -21.0740 26071.9 -03454.3 -07.5473 26299.8
 11 08 2013  17 14  -21.0740 26071.6 -03454.4 -07.5475 26299.4
 11 08 2013  17 15  -21.0738 26071.2 -03454.4 -07.5476 26299.1
 11 08 2013  17 16  -21.0738 26071.0 -03454.5 -07.5479 26298.9
 11 08 2013  17 17  -21.0741 26070.9 -03454.6 -07.5482 26298.8
 11 08 2013  17 18  -21.0744 26070.8 -03454.8 -07.5485 26298.7
 11 08 2013  17 19  -21.0749 26070.7 -03454.9 -07.5488 26298.7
 11 08 2013  17 20  -21.0751 26070.6 -03455.0 -07.5490 26298.6
 11 08 2013  17 21  -21.0752 26070.4 -03455.0 -07.5491 26298.3
 11 08 2013  17 22  -21.0752 26069.9 -03454.9 -07.5491 26297.8
 11 08 2013  17 23  -21.0754 26069.5 -03454.9 -07.5492 26297.4
 11 08 2013  17 24  -21.0756 26069.2 -03454.9 -07.5493 26297.1
 11 08 2013  17 25  -21.0760 26069.1 -03455.0 -07.5495 26297.0
 11 08 2013  17 26  -21.0763 26068.9 -03455.1 -07.5497 26296.9
 11 08 2013  17 27  -21.0765 26068.6 -03455.1 -07.5499 26296.5
 11 08 2013  17 28  -21.0768 26068.3 -03455.2 -07.5502 26296.3
 11 08 2013  17 29  -21.0770 26068.1 -03455.2 -07.5503 26296.0
 11 08 2013  17 30  -21.0773 26067.8 -03455.3 -07.5505 26295.9
 11 08 2013  17 31  -21.0775 26067.7 -03455.3 -07.5506 26295.7
 11 08 2013  17 32  -21.0779 26067.6 -03455.4 -07.5508 26295.6
 11 08 2013  17 33  -21.0782 26067.4 -03455.3 -07.5507 26295.4
 11 08 2013  17 34  -21.0783 26067.1 -03455.3 -07.5507 26295.1
 11 08 2013  17 35  -21.0783 26066.7 -03455.1 -07.5505 26294.7
 11 08 2013  17 36  -21.0784 26066.4 -03455.0 -07.5503 26294.4
 11 08 2013  17 37  -21.0787 26066.1 -03454.9 -07.5502 26294.1
 11 08 2013  17 38  -21.0789 26065.7 -03454.8 -07.5500 26293.6
 11 08 2013  17 39  -21.0790 26065.3 -03454.6 -07.5497 26293.2
 11 08 2013  17 40  -21.0790 26064.7 -03454.3 -07.5494 26292.6
 11 08 2013  17 41  -21.0788 26064.1 -03454.1 -07.5491 26292.0
 11 08 2013  17 42  -21.0786 26063.7 -03454.0 -07.5489 26291.6
 11 08 2013  17 43  -21.0783 26063.6 -03454.0 -07.5489 26291.4
 11 08 2013  17 44  -21.0783 26063.5 -03454.0 -07.5489 26291.4
 11 08 2013  17 45  -21.0782 26063.3 -03453.9 -07.5488 26291.2
 11 08 2013  17 46  -21.0781 26063.1 -03453.8 -07.5487 26291.0
 11 08 2013  17 47  -21.0779 26063.1 -03453.8 -07.5486 26290.9
 11 08 2013  17 48  -21.0777 26062.9 -03453.6 -07.5483 26290.8
 11 08 2013  17 49  -21.0772 26062.7 -03453.5 -07.5481 26290.5
 11 08 2013  17 50  -21.0768 26062.2 -03453.3 -07.5477 26290.0
 11 08 2013  17 51  -21.0764 26061.7 -03453.0 -07.5474 26289.5
 11 08 2013  17 52  -21.0758 26061.2 -03452.8 -07.5471 26289.0
 11 08 2013  17 53  -21.0752 26060.8 -03452.7 -07.5469 26288.6
 11 08 2013  17 54  -21.0748 26060.6 -03452.7 -07.5469 26288.3
 11 08 2013  17 55  -21.0744 26060.5 -03452.6 -07.5469 26288.2
 11 08 2013  17 56  -21.0741 26060.3 -03452.6 -07.5469 26288.1
 11 08 2013  17 57  -21.0737 26060.1 -03452.6 -07.5468 26287.8
 11 08 2013  17 58  -21.0734 26059.9 -03452.5 -07.5467 26287.6
 11 08 2013  17 59  -21.0726 26059.5 -03452.3 -07.5465 26287.2
 11 08 2013  18 00  -21.0719 26059.1 -03452.2 -07.5463 26286.7
 11 08 2013  18 01  -21.0713 26058.7 -03452.1 -07.5461 26286.4
 11 08 2013  18 02  -21.0707 26058.5 -03452.1 -07.5462 26286.2
 11 08 2013  18 03  -21.0702 26058.5 -03452.1 -07.5463 26286.1
 11 08 2013  18 04  -21.0696 26058.4 -03452.1 -07.5464 26286.1
 11 08 2013  18 05  -21.0691 26058.4 -03452.2 -07.5465 26286.1
 11 08 2013  18 06  -21.0685 26058.4 -03452.2 -07.5465 26286.1
 11 08 2013  18 07  -21.0680 26058.3 -03452.1 -07.5464 26286.0
 11 08 2013  18 08  -21.0674 26058.0 -03452.0 -07.5462 26285.7
 11 08 2013  18 09  -21.0666 26057.7 -03451.8 -07.5459 26285.3
 11 08 2013  18 10  -21.0657 26057.2 -03451.6 -07.5455 26284.8
 11 08 2013  18 11  -21.0649 26056.8 -03451.4 -07.5453 26284.4
 11 08 2013  18 12  -21.0642 26056.4 -03451.3 -07.5451 26284.0
 11 08 2013  18 13  -21.0635 26056.1 -03451.2 -07.5450 26283.7
 11 08 2013  18 14  -21.0629 26055.9 -03451.2 -07.5450 26283.4
 11 08 2013  18 15  -21.0621 26055.5 -03451.1 -07.5449 26283.0
 11 08 2013  18 16  -21.0612 26055.1 -03451.0 -07.5449 26282.6
 11 08 2013  18 17  -21.0602 26054.7 -03450.9 -07.5448 26282.2
 11 08 2013  18 18  -21.0593 26054.3 -03450.9 -07.5448 26281.9
 11 08 2013  18 19  -21.0583 26053.9 -03450.8 -07.5449 26281.5
 11 08 2013  18 20  -21.0573 26053.5 -03450.8 -07.5450 26281.0
 11 08 2013  18 21  -21.0563 26053.1 -03450.9 -07.5452 26280.7
 11 08 2013  18 22  -21.0552 26052.7 -03450.9 -07.5453 26280.3
 11 08 2013  18 23  -21.0544 26052.5 -03451.0 -07.5456 26280.0
 11 08 2013  18 24  -21.0535 26052.3 -03451.1 -07.5459 26279.9
 11 08 2013  18 25  -21.0526 26052.2 -03451.3 -07.5463 26279.8
 11 08 2013  18 26  -21.0520 26052.0 -03451.4 -07.5467 26279.6
 11 08 2013  18 27  -21.0513 26051.8 -03451.6 -07.5470 26279.5
 11 08 2013  18 28  -21.0507 26051.7 -03451.7 -07.5473 26279.4
 11 08 2013  18 29  -21.0500 26051.5 -03451.8 -07.5476 26279.2
 11 08 2013  18 30  -21.0490 26051.1 -03451.8 -07.5478 26278.8
 11 08 2013  18 31  -21.0480 26050.7 -03451.8 -07.5480 26278.4
 11 08 2013  18 32  -21.0475 26050.5 -03452.0 -07.5484 26278.3
 11 08 2013  18 33  -21.0471 26050.5 -03452.2 -07.5488 26278.2
 11 08 2013  18 34  -21.0464 26050.3 -03452.3 -07.5491 26278.1
 11 08 2013  18 35  -21.0457 26050.1 -03452.4 -07.5494 26277.9
 11 08 2013  18 36  -21.0451 26049.9 -03452.5 -07.5497 26277.7
 11 08 2013  18 37  -21.0445 26049.7 -03452.6 -07.5500 26277.5
 11 08 2013  18 38  -21.0440 26049.5 -03452.8 -07.5504 26277.4
 11 08 2013  18 39  -21.0434 26049.3 -03452.9 -07.5508 26277.2
 11 08 2013  18 40  -21.0426 26048.9 -03453.0 -07.5510 26276.8
 11 08 2013  18 41  -21.0419 26048.6 -03453.1 -07.5513 26276.5
 11 08 2013  18 42  -21.0416 26048.4 -03453.3 -07.5517 26276.3
 11 08 2013  18 43  -21.0415 26048.3 -03453.4 -07.5520 26276.2
 11 08 2013  18 44  -21.0412 26048.1 -03453.4 -07.5522 26276.0
 11 08 2013  18 45  -21.0408 26047.8 -03453.5 -07.5524 26275.7
 11 08 2013  18 46  -21.0405 26047.5 -03453.6 -07.5526 26275.5
 11 08 2013  18 47  -21.0403 26047.3 -03453.6 -07.5529 26275.2
 11 08 2013  18 48  -21.0399 26047.0 -03453.7 -07.5531 26275.0
 11 08 2013  18 49  -21.0395 26046.8 -03453.8 -07.5533 26274.7
 11 08 2013  18 50  -21.0390 26046.6 -03453.9 -07.5536 26274.6
 11 08 2013  18 51  -21.0387 26046.4 -03454.1 -07.5541 26274.5
 11 08 2013  18 52  -21.0383 26046.4 -03454.3 -07.5546 26274.5
 11 08 2013  18 53  -21.0381 26046.5 -03454.6 -07.5550 26274.6
 11 08 2013  18 54  -21.0378 26046.5 -03454.8 -07.5555 26274.6
 11 08 2013  18 55  -21.0375 26046.4 -03455.0 -07.5559 26274.5
 11 08 2013  18 56  -21.0372 26046.2 -03455.1 -07.5562 26274.3
 11 08 2013  18 57  -21.0368 26045.8 -03455.1 -07.5564 26273.9
 11 08 2013  18 58  -21.0362 26045.3 -03455.1 -07.5566 26273.5
 11 08 2013  18 59  -21.0355 26044.9 -03455.2 -07.5569 26273.0
 11 08 2013  19 00  -21.0350 26044.5 -03455.3 -07.5572 26272.7
 11 08 2013  19 01  -21.0345 26044.2 -03455.5 -07.5577 26272.5
 11 08 2013  19 02  -21.0340 26043.9 -03455.6 -07.5581 26272.2
 11 08 2013  19 03  -21.0336 26043.7 -03455.8 -07.5586 26272.0
 11 08 2013  19 04  -21.0332 26043.5 -03456.0 -07.5591 26271.8
 11 08 2013  19 05  -21.0329 26043.2 -03456.2 -07.5596 26271.5
 11 08 2013  19 06  -21.0326 26043.0 -03456.4 -07.5601 26271.4
 11 08 2013  19 07  -21.0324 26042.9 -03456.6 -07.5605 26271.2
 11 08 2013  19 08  -21.0324 26042.7 -03456.8 -07.5610 26271.1
 11 08 2013  19 09  -21.0323 26042.5 -03456.9 -07.5613 26270.9
 11 08 2013  19 10  -21.0321 26042.3 -03457.1 -07.5617 26270.7
 11 08 2013  19 11  -21.0320 26042.0 -03457.3 -07.5622 26270.5
 11 08 2013  19 12  -21.0318 26041.9 -03457.4 -07.5626 26270.4
 11 08 2013  19 13  -21.0317 26041.8 -03457.6 -07.5631 26270.4
 11 08 2013  19 14  -21.0317 26041.8 -03457.9 -07.5636 26270.4
 11 08 2013  19 15  -21.0316 26041.8 -03458.1 -07.5640 26270.4
 11 08 2013  19 16  -21.0315 26041.7 -03458.2 -07.5644 26270.3
 11 08 2013  19 17  -21.0314 26041.6 -03458.4 -07.5648 26270.2
 11 08 2013  19 18  -21.0312 26041.4 -03458.5 -07.5651 26270.1
 11 08 2013  19 19  -21.0311 26041.3 -03458.7 -07.5654 26270.0
 11 08 2013  19 20  -21.0310 26041.1 -03458.8 -07.5657 26269.8
 11 08 2013  19 21  -21.0308 26040.9 -03458.9 -07.5659 26269.6
 11 08 2013  19 22  -21.0305 26040.7 -03459.0 -07.5662 26269.4
 11 08 2013  19 23  -21.0302 26040.5 -03459.1 -07.5666 26269.3
 11 08 2013  19 24  -21.0298 26040.3 -03459.2 -07.5669 26269.0
 11 08 2013  19 25  -21.0294 26040.1 -03459.4 -07.5673 26268.9
 11 08 2013  19 26  -21.0290 26040.0 -03459.5 -07.5677 26268.8
 11 08 2013  19 27  -21.0287 26039.9 -03459.7 -07.5681 26268.7
 11 08 2013  19 28  -21.0284 26039.8 -03459.9 -07.5685 26268.7
 11 08 2013  19 29  -21.0282 26039.7 -03460.1 -07.5690 26268.6
 11 08 2013  19 30  -21.0277 26039.5 -03460.2 -07.5693 26268.4
 11 08 2013  19 31  -21.0274 26039.3 -03460.4 -07.5696 26268.3
 11 08 2013  19 32  -21.0269 26039.2 -03460.4 -07.5699 26268.1
 11 08 2013  19 33  -21.0265 26039.0 -03460.6 -07.5702 26268.0
 11 08 2013  19 34  -21.0263 26039.0 -03460.8 -07.5707 26268.0
 11 08 2013  19 35  -21.0261 26038.9 -03461.0 -07.5712 26267.9
 11 08 2013  19 36  -21.0260 26038.9 -03461.2 -07.5717 26268.0
 11 08 2013  19 37  -21.0260 26039.0 -03461.5 -07.5722 26268.1
 11 08 2013  19 38  -21.0261 26039.0 -03461.8 -07.5728 26268.1
 11 08 2013  19 39  -21.0259 26038.8 -03461.9 -07.5732 26268.0
 11 08 2013  19 40  -21.0259 26038.7 -03462.1 -07.5737 26267.8
 11 08 2013  19 41  -21.0261 26038.5 -03462.3 -07.5741 26267.7
 11 08 2013  19 42  -21.0261 26038.2 -03462.3 -07.5743 26267.4
 11 08 2013  19 43  -21.0260 26038.0 -03462.6 -07.5749 26267.3
 11 08 2013  19 44  -21.0260 26038.0 -03462.9 -07.5754 26267.3
 11 08 2013  19 45  -21.0260 26038.0 -03463.1 -07.5760 26267.3
 11 08 2013  19 46  -21.0261 26037.9 -03463.3 -07.5764 26267.2
 11 08 2013  19 47  -21.0263 26037.7 -03463.4 -07.5768 26267.0
 11 08 2013  19 48  -21.0263 26037.4 -03463.5 -07.5770 26266.7
 11 08 2013  19 49  -21.0264 26037.3 -03463.7 -07.5774 26266.7
 11 08 2013  19 50  -21.0265 26037.3 -03463.9 -07.5778 26266.7
 11 08 2013  19 51  -21.0268 26037.3 -03464.1 -07.5783 26266.7
 11 08 2013  19 52  -21.0268 26037.2 -03464.2 -07.5787 26266.7
 11 08 2013  19 53  -21.0269 26037.0 -03464.3 -07.5789 26266.5
 11 08 2013  19 54  -21.0269 26036.9 -03464.5 -07.5792 26266.3
 11 08 2013  19 55  -21.0271 26036.9 -03464.6 -07.5796 26266.4
 11 08 2013  19 56  -21.0274 26036.8 -03464.8 -07.5800 26266.4
 11 08 2013  19 57  -21.0276 26036.8 -03465.0 -07.5803 26266.4
 11 08 2013  19 58  -21.0278 26036.7 -03465.1 -07.5806 26266.3
 11 08 2013  19 59  -21.0277 26036.6 -03465.2 -07.5809 26266.2
 11 08 2013  20 00  -21.0279 26036.6 -03465.3 -07.5812 26266.2
 11 08 2013  20 01  -21.0280 26036.6 -03465.5 -07.5815 26266.2
 11 08 2013  20 02  -21.0281 26036.6 -03465.6 -07.5818 26266.3
 11 08 2013  20 03  -21.0282 26036.6 -03465.7 -07.5820 26266.3
 11 08 2013  20 04  -21.0282 26036.7 -03465.8 -07.5823 26266.3
 11 08 2013  20 05  -21.0282 26036.7 -03466.0 -07.5825 26266.4
 11 08 2013  20 06  -21.0283 26036.7 -03466.1 -07.5828 26266.4
 11 08 2013  20 07  -21.0284 26036.8 -03466.3 -07.5832 26266.5
 11 08 2013  20 08  -21.0284 26036.8 -03466.4 -07.5834 26266.5
 11 08 2013  20 09  -21.0284 26036.8 -03466.5 -07.5836 26266.5
 11 08 2013  20 10  -21.0281 26036.9 -03466.6 -07.5839 26266.6
 11 08 2013  20 11  -21.0280 26036.9 -03466.8 -07.5843 26266.7
 11 08 2013  20 12  -21.0279 26037.0 -03467.0 -07.5846 26266.8
 11 08 2013  20 13  -21.0279 26037.1 -03467.2 -07.5850 26266.9
 11 08 2013  20 14  -21.0281 26037.3 -03467.3 -07.5853 26267.1
 11 08 2013  20 15  -21.0284 26037.4 -03467.5 -07.5856 26267.3
 11 08 2013  20 16  -21.0285 26037.4 -03467.5 -07.5857 26267.3
 11 08 2013  20 17  -21.0286 26037.3 -03467.5 -07.5857 26267.1
 11 08 2013  20 18  -21.0286 26037.0 -03467.5 -07.5857 26266.8
 11 08 2013  20 19  -21.0285 26036.6 -03467.4 -07.5856 26266.5
 11 08 2013  20 20  -21.0284 26036.4 -03467.4 -07.5858 26266.3
 11 08 2013  20 21  -21.0282 26036.4 -03467.5 -07.5859 26266.2
 11 08 2013  20 22  -21.0281 26036.4 -03467.6 -07.5862 26266.3
 11 08 2013  20 23  -21.0282 26036.5 -03467.8 -07.5865 26266.4
 11 08 2013  20 24  -21.0282 26036.5 -03467.9 -07.5868 26266.4
 11 08 2013  20 25  -21.0283 26036.5 -03468.0 -07.5871 26266.5
 11 08 2013  20 26  -21.0287 26036.5 -03468.1 -07.5872 26266.4
 11 08 2013  20 27  -21.0289 26036.4 -03468.1 -07.5873 26266.3
 11 08 2013  20 28  -21.0290 26036.1 -03468.1 -07.5872 26266.1
 11 08 2013  20 29  -21.0291 26036.1 -03468.1 -07.5873 26266.0
 11 08 2013  20 30  -21.0290 26036.0 -03468.2 -07.5875 26266.0
 11 08 2013  20 31  -21.0290 26036.0 -03468.2 -07.5876 26265.9
 11 08 2013  20 32  -21.0289 26035.9 -03468.3 -07.5878 26265.9
 11 08 2013  20 33  -21.0288 26035.8 -03468.4 -07.5880 26265.8
 11 08 2013  20 34  -21.0286 26035.7 -03468.4 -07.5881 26265.7
 11 08 2013  20 35  -21.0285 26035.5 -03468.4 -07.5882 26265.6
 11 08 2013  20 36  -21.0284 26035.5 -03468.5 -07.5884 26265.5
 11 08 2013  20 37  -21.0282 26035.4 -03468.6 -07.5885 26265.5
 11 08 2013  20 38  -21.0281 26035.5 -03468.7 -07.5888 26265.5
 11 08 2013  20 39  -21.0281 26035.6 -03468.9 -07.5891 26265.6
 11 08 2013  20 40  -21.0279 26035.7 -03469.0 -07.5894 26265.8
 11 08 2013  20 41  -21.0280 26035.7 -03469.1 -07.5896 26265.8
 11 08 2013  20 42  -21.0280 26035.7 -03469.2 -07.5898 26265.8
 11 08 2013  20 43  -21.0281 26035.6 -03469.2 -07.5899 26265.7
 11 08 2013  20 44  -21.0281 26035.3 -03469.2 -07.5899 26265.5
 11 08 2013  20 45  -21.0281 26035.3 -03469.2 -07.5900 26265.4
 11 08 2013  20 46  -21.0281 26035.3 -03469.3 -07.5902 26265.4
 11 08 2013  20 47  -21.0280 26035.0 -03469.3 -07.5902 26265.2
 11 08 2013  20 48  -21.0279 26034.7 -03469.3 -07.5902 26264.8
 11 08 2013  20 49  -21.0280 26034.4 -03469.2 -07.5902 26264.5
 11 08 2013  20 50  -21.0279 26034.2 -03469.2 -07.5904 26264.3
 11 08 2013  20 51  -21.0279 26033.8 -03469.2 -07.5903 26264.0
 11 08 2013  20 52  -21.0278 26033.5 -03469.1 -07.5903 26263.7
 11 08 2013  20 53  -21.0279 26033.5 -03469.2 -07.5905 26263.6
 11 08 2013  20 54  -21.0281 26033.6 -03469.4 -07.5909 26263.7
 11 08 2013  20 55  -21.0282 26033.5 -03469.6 -07.5912 26263.7
 11 08 2013  20 56  -21.0282 26033.3 -03469.6 -07.5913 26263.5
 11 08 2013  20 57  -21.0283 26033.2 -03469.6 -07.5914 26263.4
 11 08 2013  20 58  -21.0284 26033.2 -03469.7 -07.5916 26263.4
 11 08 2013  20 59  -21.0283 26033.2 -03469.8 -07.5917 26263.4
 11 08 2013  21 00  -21.0284 26033.3 -03469.9 -07.5921 26263.5
 11 08 2013  21 01  -21.0285 26033.6 -03470.2 -07.5925 26263.8
 11 08 2013  21 02  -21.0287 26033.7 -03470.3 -07.5928 26264.0
 11 08 2013  21 03  -21.0288 26033.8 -03470.4 -07.5930 26264.1
 11 08 2013  21 04  -21.0290 26033.9 -03470.5 -07.5932 26264.2
 11 08 2013  21 05  -21.0290 26034.0 -03470.6 -07.5934 26264.3
 11 08 2013  21 06  -21.0291 26034.1 -03470.8 -07.5937 26264.5
 11 08 2013  21 07  -21.0293 26034.4 -03471.0 -07.5941 26264.8
 11 08 2013  21 08  -21.0293 26034.7 -03471.2 -07.5944 26265.1
 11 08 2013  21 09  -21.0294 26035.1 -03471.4 -07.5947 26265.5
 11 08 2013  21 10  -21.0295 26035.5 -03471.6 -07.5950 26265.9
 11 08 2013  21 11  -21.0297 26035.6 -03471.6 -07.5951 26266.0
 11 08 2013  21 12  -21.0301 26035.4 -03471.6 -07.5951 26265.8
 11 08 2013  21 13  -21.0296 26035.7 -03471.7 -07.5951 26266.2
 11 08 2013  21 14  -21.0296 26035.5 -03471.5 -07.5949 26265.9
 11 08 2013  21 15  -21.0291 26035.4 -03471.4 -07.5947 26265.8
 11 08 2013  21 16  -21.0288 26035.1 -03471.3 -07.5945 26265.5
 11 08 2013  21 17  -21.0282 26034.9 -03471.2 -07.5943 26265.2
 11 08 2013  21 18  -21.0277 26034.7 -03471.1 -07.5942 26265.1
 11 08 2013  21 19  -21.0274 26034.6 -03471.1 -07.5942 26264.9
 11 08 2013  21 20  -21.0275 26034.4 -03471.1 -07.5943 26264.8
 11 08 2013  21 21  -21.0274 26034.5 -03471.2 -07.5945 26264.9
 11 08 2013  21 22  -21.0273 26034.5 -03471.3 -07.5947 26264.9
 11 08 2013  21 23  -21.0272 26034.6 -03471.4 -07.5949 26265.0
 11 08 2013  21 24  -21.0270 26034.6 -03471.5 -07.5951 26265.1
 11 08 2013  21 25  -21.0265 26034.7 -03471.5 -07.5952 26265.1
 11 08 2013  21 26  -21.0260 26034.8 -03471.6 -07.5953 26265.3
 11 08 2013  21 27  -21.0255 26034.8 -03471.7 -07.5954 26265.3
 11 08 2013  21 28  -21.0252 26034.8 -03471.7 -07.5955 26265.2
 11 08 2013  21 29  -21.0251 26034.8 -03471.8 -07.5957 26265.3
 11 08 2013  21 30  -21.0248 26034.8 -03471.9 -07.5958 26265.3
 11 08 2013  21 31  -21.0245 26034.9 -03472.0 -07.5961 26265.4
 11 08 2013  21 32  -21.0242 26035.1 -03472.1 -07.5963 26265.6
 11 08 2013  21 33  -21.0240 26035.3 -03472.2 -07.5965 26265.8
 11 08 2013  21 34  -21.0239 26035.5 -03472.4 -07.5969 26266.1
 11 08 2013  21 35  -21.0236 26035.6 -03472.6 -07.5971 26266.2
 11 08 2013  21 36  -21.0232 26035.9 -03472.7 -07.5973 26266.4
 11 08 2013  21 37  -21.0232 26035.9 -03472.8 -07.5975 26266.5
 11 08 2013  21 38  -21.0231 26035.8 -03472.8 -07.5975 26266.4
 11 08 2013  21 39  -21.0234 26035.7 -03472.8 -07.5975 26266.3
 11 08 2013  21 40  -21.0233 26035.7 -03472.7 -07.5975 26266.3
 11 08 2013  21 41  -21.0231 26035.7 -03472.8 -07.5976 26266.3
 11 08 2013  21 42  -21.0231 26035.7 -03472.8 -07.5977 26266.3
 11 08 2013  21 43  -21.0231 26035.8 -03472.9 -07.5978 26266.4
 11 08 2013  21 44  -21.0231 26035.8 -03472.9 -07.5979 26266.4
 11 08 2013  21 45  -21.0229 26035.8 -03472.9 -07.5979 26266.4
 11 08 2013  21 46  -21.0231 26036.0 -03473.1 -07.5981 26266.6
 11 08 2013  21 47  -21.0229 26036.2 -03473.2 -07.5983 26266.8
 11 08 2013  21 48  -21.0226 26036.3 -03473.3 -07.5984 26266.9
 11 08 2013  21 49  -21.0228 26036.2 -03473.3 -07.5984 26266.9
 11 08 2013  21 50  -21.0227 26036.1 -03473.2 -07.5984 26266.8
 11 08 2013  21 51  -21.0225 26036.1 -03473.2 -07.5983 26266.7
 11 08 2013  21 52  -21.0223 26036.0 -03473.1 -07.5982 26266.6
 11 08 2013  21 53  -21.0222 26035.8 -03473.0 -07.5981 26266.4
 11 08 2013  21 54  -21.0220 26035.7 -03473.0 -07.5981 26266.3
 11 08 2013  21 55  -21.0221 26035.9 -03473.1 -07.5983 26266.5
 11 08 2013  21 56  -21.0223 26036.1 -03473.3 -07.5986 26266.7
 11 08 2013  21 57  -21.0220 26036.1 -03473.3 -07.5986 26266.8
 11 08 2013  21 58  -21.0218 26036.0 -03473.3 -07.5985 26266.7
 11 08 2013  21 59  -21.0219 26036.0 -03473.3 -07.5985 26266.6
 11 08 2013  22 00  -21.0218 26036.0 -03473.3 -07.5985 26266.7
 11 08 2013  22 01  -21.0216 26036.0 -03473.3 -07.5986 26266.7
 11 08 2013  22 02  -21.0217 26036.1 -03473.3 -07.5987 26266.8
 11 08 2013  22 03  -21.0218 26036.4 -03473.5 -07.5988 26267.0
 11 08 2013  22 04  -21.0219 26036.5 -03473.6 -07.5990 26267.2
 11 08 2013  22 05  -21.0220 26036.6 -03473.6 -07.5991 26267.3
 11 08 2013  22 06  -21.0223 26036.7 -03473.6 -07.5991 26267.4
 11 08 2013  22 07  -21.0225 26036.7 -03473.6 -07.5991 26267.4
 11 08 2013  22 08  -21.0226 26036.7 -03473.6 -07.5991 26267.4
 11 08 2013  22 09  -21.0226 26036.6 -03473.5 -07.5989 26267.2
 11 08 2013  22 10  -21.0226 26036.5 -03473.5 -07.5989 26267.2
 11 08 2013  22 11  -21.0227 26036.5 -03473.5 -07.5989 26267.2
 11 08 2013  22 12  -21.0227 26036.5 -03473.5 -07.5988 26267.2
 11 08 2013  22 13  -21.0227 26036.4 -03473.4 -07.5988 26267.1
 11 08 2013  22 14  -21.0225 26036.4 -03473.4 -07.5986 26267.1
 11 08 2013  22 15  -21.0223 26036.3 -03473.3 -07.5985 26267.0
 11 08 2013  22 16  -21.0222 26036.3 -03473.3 -07.5985 26266.9
 11 08 2013  22 17  -21.0220 26036.3 -03473.3 -07.5986 26266.9
 11 08 2013  22 18  -21.0219 26036.2 -03473.3 -07.5986 26266.9
 11 08 2013  22 19  -21.0219 26036.2 -03473.3 -07.5985 26266.8
 11 08 2013  22 20  -21.0219 26036.1 -03473.3 -07.5985 26266.7
 11 08 2013  22 21  -21.0219 26036.0 -03473.2 -07.5984 26266.6
 11 08 2013  22 22  -21.0220 26035.9 -03473.2 -07.5984 26266.6
 11 08 2013  22 23  -21.0222 26035.9 -03473.2 -07.5985 26266.6
 11 08 2013  22 24  -21.0223 26036.0 -03473.3 -07.5985 26266.7
 11 08 2013  22 25  -21.0224 26036.3 -03473.4 -07.5988 26267.0
 11 08 2013  22 26  -21.0221 26036.7 -03473.6 -07.5991 26267.4
 11 08 2013  22 27  -21.0226 26036.2 -03473.4 -07.5988 26266.9
 11 08 2013  22 28  -21.0228 26035.8 -03473.2 -07.5984 26266.5
 11 08 2013  22 29  -21.0226 26035.9 -03473.2 -07.5983 26266.5
 11 08 2013  22 30  -21.0227 26036.0 -03473.2 -07.5984 26266.6
 11 08 2013  22 31  -21.0229 26036.1 -03473.3 -07.5985 26266.7
 11 08 2013  22 32  -21.0230 26036.2 -03473.3 -07.5986 26266.8
 11 08 2013  22 33  -21.0234 26036.0 -03473.3 -07.5986 26266.7
 11 08 2013  22 34  -21.0235 26036.1 -03473.3 -07.5985 26266.8
 11 08 2013  22 35  -21.0234 26036.3 -03473.3 -07.5986 26266.9
 11 08 2013  22 36  -21.0238 26036.3 -03473.3 -07.5986 26266.9
 11 08 2013  22 37  -21.0239 26036.3 -03473.3 -07.5985 26267.0
 11 08 2013  22 38  -21.0238 26036.4 -03473.3 -07.5986 26267.1
 11 08 2013  22 39  -21.0238 26036.5 -03473.4 -07.5986 26267.2
 11 08 2013  22 40  -21.0237 26036.3 -03473.3 -07.5984 26267.0
 11 08 2013  22 41  -21.0234 26036.1 -03473.1 -07.5982 26266.8
 11 08 2013  22 42  -21.0233 26036.1 -03473.0 -07.5980 26266.7
 11 08 2013  22 43  -21.0230 26036.2 -03473.1 -07.5981 26266.8
 11 08 2013  22 44  -21.0229 26036.3 -03473.1 -07.5982 26266.9
 11 08 2013  22 45  -21.0229 26036.4 -03473.2 -07.5983 26267.0
 11 08 2013  22 46  -21.0230 26036.3 -03473.2 -07.5983 26267.0
 11 08 2013  22 47  -21.0233 26036.2 -03473.2 -07.5983 26266.9
 11 08 2013  22 48  -21.0236 26036.2 -03473.2 -07.5983 26266.8
 11 08 2013  22 49  -21.0240 26035.9 -03473.0 -07.5980 26266.5
 11 08 2013  22 50  -21.0244 26035.9 -03473.0 -07.5979 26266.5
 11 08 2013  22 51  -21.0245 26035.8 -03472.9 -07.5978 26266.4
 11 08 2013  22 52  -21.0248 26035.6 -03472.9 -07.5978 26266.2
 11 08 2013  22 53  -21.0250 26035.7 -03472.9 -07.5978 26266.3
 11 08 2013  22 54  -21.0251 26035.7 -03472.9 -07.5978 26266.3
 11 08 2013  22 55  -21.0253 26035.7 -03472.9 -07.5978 26266.3
 11 08 2013  22 56  -21.0254 26035.7 -03472.9 -07.5979 26266.3
 11 08 2013  22 57  -21.0255 26035.7 -03472.9 -07.5978 26266.3
 11 08 2013  22 58  -21.0255 26035.8 -03472.9 -07.5978 26266.4
 11 08 2013  22 59  -21.0252 26035.9 -03473.0 -07.5979 26266.5
 11 08 2013  23 00  -21.0252 26035.8 -03472.9 -07.5978 26266.4
 11 08 2013  23 01  -21.0251 26035.8 -03472.9 -07.5978 26266.4
 11 08 2013  23 02  -21.0251 26035.6 -03472.9 -07.5977 26266.2
 11 08 2013  23 03  -21.0252 26035.4 -03472.8 -07.5977 26266.0
 11 08 2013  23 04  -21.0252 26035.3 -03472.7 -07.5976 26265.8
 11 08 2013  23 05  -21.0252 26035.1 -03472.7 -07.5975 26265.7
 11 08 2013  23 06  -21.0250 26035.1 -03472.7 -07.5975 26265.7
 11 08 2013  23 07  -21.0249 26035.2 -03472.7 -07.5976 26265.7
 11 08 2013  23 08  -21.0248 26035.2 -03472.8 -07.5977 26265.8
 11 08 2013  23 09  -21.0248 26035.3 -03472.9 -07.5979 26265.9
 11 08 2013  23 10  -21.0248 26035.2 -03472.9 -07.5979 26265.8
 11 08 2013  23 11  -21.0247 26035.2 -03472.9 -07.5980 26265.8
 11 08 2013  23 12  -21.0248 26035.2 -03472.9 -07.5980 26265.8
 11 08 2013  23 13  -21.0250 26035.1 -03472.9 -07.5981 26265.7
 11 08 2013  23 14  -21.0252 26035.0 -03472.9 -07.5981 26265.7
 11 08 2013  23 15  -21.0255 26035.0 -03472.9 -07.5981 26265.6
 11 08 2013  23 16  -21.0256 26034.9 -03472.9 -07.5980 26265.5
 11 08 2013  23 17  -21.0257 26034.9 -03472.9 -07.5980 26265.5
 11 08 2013  23 18  -21.0256 26034.9 -03472.9 -07.5981 26265.6
 11 08 2013  23 19  -21.0253 26034.9 -03472.9 -07.5981 26265.5
 11 08 2013  23 20  -21.0251 26034.8 -03472.9 -07.5980 26265.4
 11 08 2013  23 21  -21.0250 26034.8 -03472.9 -07.5980 26265.4
 11 08 2013  23 22  -21.0248 26034.7 -03472.9 -07.5980 26265.3
 11 08 2013  23 23  -21.0249 26034.6 -03472.9 -07.5980 26265.3
 11 08 2013  23 24  -21.0251 26034.6 -03472.9 -07.5981 26265.2
 11 08 2013  23 25  -21.0252 26034.7 -03472.9 -07.5982 26265.3
 11 08 2013  23 26  -21.0254 26034.7 -03473.0 -07.5983 26265.3
 11 08 2013  23 27  -21.0255 26034.7 -03473.1 -07.5985 26265.3
 11 08 2013  23 28  -21.0256 26034.6 -03473.0 -07.5984 26265.2
 11 08 2013  23 29  -21.0258 26034.5 -03473.0 -07.5984 26265.1
 11 08 2013  23 30  -21.0258 26034.4 -03472.9 -07.5982 26265.0
 11 08 2013  23 31  -21.0258 26034.4 -03472.9 -07.5983 26265.0
 11 08 2013  23 32  -21.0259 26034.2 -03472.9 -07.5982 26264.8
 11 08 2013  23 33  -21.0260 26034.1 -03472.9 -07.5982 26264.7
 11 08 2013  23 34  -21.0260 26034.1 -03472.9 -07.5983 26264.8
 11 08 2013  23 35  -21.0260 26034.1 -03473.0 -07.5984 26264.8
 11 08 2013  23 36  -21.0259 26034.2 -03473.0 -07.5984 26264.8
 11 08 2013  23 37  -21.0258 26034.2 -03473.0 -07.5984 26264.8
 11 08 2013  23 38  -21.0258 26034.0 -03472.9 -07.5984 26264.6
 11 08 2013  23 39  -21.0258 26033.9 -03472.9 -07.5984 26264.5
 11 08 2013  23 40  -21.0258 26033.9 -03472.9 -07.5984 26264.5
 11 08 2013  23 41  -21.0258 26033.8 -03472.9 -07.5984 26264.4
 11 08 2013  23 42  -21.0257 26033.8 -03472.9 -07.5984 26264.4
 11 08 2013  23 43  -21.0255 26033.7 -03472.9 -07.5985 26264.4
 11 08 2013  23 44  -21.0253 26033.7 -03472.9 -07.5985 26264.3
 11 08 2013  23 45  -21.0251 26033.7 -03472.9 -07.5985 26264.3
 11 08 2013  23 46  -21.0249 26033.7 -03473.0 -07.5986 26264.3
 11 08 2013  23 47  -21.0248 26033.7 -03473.1 -07.5987 26264.4
 11 08 2013  23 48  -21.0247 26033.7 -03473.1 -07.5988 26264.4
 11 08 2013  23 49  -21.0247 26033.8 -03473.2 -07.5989 26264.4
 11 08 2013  23 50  -21.0246 26033.8 -03473.2 -07.5990 26264.5
 11 08 2013  23 51  -21.0246 26033.8 -03473.2 -07.5991 26264.5
 11 08 2013  23 52  -21.0245 26033.8 -03473.3 -07.5992 26264.5
 11 08 2013  23 53  -21.0246 26033.8 -03473.3 -07.5992 26264.5
 11 08 2013  23 54  -21.0247 26033.9 -03473.4 -07.5994 26264.6
 11 08 2013  23 55  -21.0247 26034.1 -03473.5 -07.5995 26264.8
 11 08 2013  23 56  -21.0248 26034.2 -03473.6 -07.5997 26264.9
 11 08 2013  23 57  -21.0249 26034.2 -03473.6 -07.5998 26264.9
 11 08 2013  23 58  -21.0247 26034.1 -03473.6 -07.5997 26264.9
