SAO LUIS EMBRACE-03 <301> 1 Min. Reported data

 DD MM YYYY  HH MM   D(Deg)  H(nT)   Z(nT)   I(Deg)   F(nT)

 28 10 2013  00 00  -20.9915 26030.5 -03500.4 -07.6588 26264.8
 28 10 2013  00 01  -20.9917 26030.5 -03500.5 -07.6589 26264.8
 28 10 2013  00 02  -20.9917 26030.4 -03500.4 -07.6588 26264.7
 28 10 2013  00 03  -20.9917 26030.4 -03500.4 -07.6588 26264.7
 28 10 2013  00 04  -20.9918 26030.4 -03500.5 -07.6589 26264.7
 28 10 2013  00 05  -20.9919 26030.4 -03500.5 -07.6591 26264.7
 28 10 2013  00 06  -20.9920 26030.4 -03500.5 -07.6591 26264.7
 28 10 2013  00 07  -20.9921 26030.4 -03500.6 -07.6592 26264.7
 28 10 2013  00 08  -20.9921 26030.4 -03500.6 -07.6592 26264.7
 28 10 2013  00 09  -20.9921 26030.4 -03500.6 -07.6592 26264.7
 28 10 2013  00 10  -20.9921 26030.4 -03500.6 -07.6593 26264.7
 28 10 2013  00 11  -20.9921 26030.4 -03500.7 -07.6594 26264.7
 28 10 2013  00 12  -20.9921 26030.3 -03500.6 -07.6593 26264.7
 28 10 2013  00 13  -20.9924 26030.1 -03500.5 -07.6592 26264.4
 28 10 2013  00 14  -20.9926 26029.8 -03500.4 -07.6590 26264.1
 28 10 2013  00 15  -20.9927 26029.4 -03500.3 -07.6588 26263.7
 28 10 2013  00 16  -20.9929 26029.2 -03500.2 -07.6586 26263.5
 28 10 2013  00 17  -20.9929 26028.9 -03500.0 -07.6585 26263.2
 28 10 2013  00 18  -20.9930 26028.7 -03499.9 -07.6583 26262.9
 28 10 2013  00 19  -20.9930 26028.5 -03499.9 -07.6583 26262.7
 28 10 2013  00 20  -20.9929 26028.4 -03499.8 -07.6582 26262.6
 28 10 2013  00 21  -20.9931 26028.3 -03499.9 -07.6583 26262.6
 28 10 2013  00 22  -20.9932 26028.4 -03500.0 -07.6585 26262.6
 28 10 2013  00 23  -20.9934 26028.3 -03500.0 -07.6586 26262.6
 28 10 2013  00 24  -20.9936 26028.2 -03500.0 -07.6586 26262.5
 28 10 2013  00 25  -20.9939 26028.1 -03500.0 -07.6586 26262.4
 28 10 2013  00 26  -20.9942 26028.1 -03500.1 -07.6587 26262.4
 28 10 2013  00 27  -20.9943 26028.2 -03500.1 -07.6588 26262.5
 28 10 2013  00 28  -20.9943 26028.3 -03500.2 -07.6589 26262.6
 28 10 2013  00 29  -20.9939 26028.7 -03500.3 -07.6592 26263.0
 28 10 2013  00 30  -20.9937 26029.4 -03500.7 -07.6597 26263.7
 28 10 2013  00 31  -20.9934 26030.2 -03501.1 -07.6603 26264.6
 28 10 2013  00 32  -20.9933 26031.0 -03501.5 -07.6609 26265.4
 28 10 2013  00 33  -20.9933 26031.6 -03501.8 -07.6615 26266.1
 28 10 2013  00 34  -20.9932 26032.0 -03502.0 -07.6618 26266.5
 28 10 2013  00 35  -20.9933 26032.0 -03501.9 -07.6616 26266.5
 28 10 2013  00 36  -20.9932 26031.8 -03501.7 -07.6613 26266.3
 28 10 2013  00 37  -20.9931 26031.7 -03501.6 -07.6610 26266.2
 28 10 2013  00 38  -20.9927 26031.6 -03501.5 -07.6608 26266.0
 28 10 2013  00 39  -20.9924 26031.6 -03501.4 -07.6606 26266.0
 28 10 2013  00 40  -20.9924 26031.5 -03501.3 -07.6605 26265.9
 28 10 2013  00 41  -20.9925 26031.4 -03501.3 -07.6604 26265.9
 28 10 2013  00 42  -20.9925 26031.2 -03501.2 -07.6602 26265.6
 28 10 2013  00 43  -20.9927 26031.4 -03501.2 -07.6603 26265.8
 28 10 2013  00 44  -20.9928 26031.3 -03501.2 -07.6603 26265.7
 28 10 2013  00 45  -20.9929 26031.1 -03501.1 -07.6601 26265.5
 28 10 2013  00 46  -20.9929 26031.1 -03501.1 -07.6601 26265.5
 28 10 2013  00 47  -20.9928 26031.1 -03501.0 -07.6600 26265.4
 28 10 2013  00 48  -20.9928 26031.2 -03501.1 -07.6601 26265.6
 28 10 2013  00 49  -20.9927 26031.3 -03501.1 -07.6601 26265.6
 28 10 2013  00 50  -20.9928 26031.2 -03501.1 -07.6601 26265.6
 28 10 2013  00 51  -20.9930 26031.1 -03501.0 -07.6600 26265.5
 28 10 2013  00 52  -20.9930 26031.1 -03501.1 -07.6600 26265.5
 28 10 2013  00 53  -20.9930 26031.1 -03501.0 -07.6600 26265.5
 28 10 2013  00 54  -20.9933 26030.9 -03501.0 -07.6599 26265.3
 28 10 2013  00 55  -20.9934 26030.7 -03500.9 -07.6597 26265.1
 28 10 2013  00 56  -20.9936 26030.4 -03500.7 -07.6594 26264.7
 28 10 2013  00 57  -20.9941 26029.9 -03500.5 -07.6591 26264.2
 28 10 2013  00 58  -20.9947 26029.3 -03500.2 -07.6587 26263.6
 28 10 2013  00 59  -20.9953 26028.9 -03500.0 -07.6584 26263.2
 28 10 2013  01 00  -20.9959 26028.4 -03499.8 -07.6581 26262.6
 28 10 2013  01 01  -20.9964 26027.9 -03499.6 -07.6578 26262.2
 28 10 2013  01 02  -20.9965 26027.8 -03499.5 -07.6577 26262.0
 28 10 2013  01 03  -20.9965 26027.8 -03499.6 -07.6578 26262.1
 28 10 2013  01 04  -20.9965 26028.0 -03499.7 -07.6580 26262.2
 28 10 2013  01 05  -20.9968 26028.1 -03499.8 -07.6582 26262.4
 28 10 2013  01 06  -20.9971 26028.3 -03500.0 -07.6585 26262.6
 28 10 2013  01 07  -20.9973 26028.4 -03500.0 -07.6586 26262.6
 28 10 2013  01 08  -20.9974 26028.3 -03500.0 -07.6586 26262.6
 28 10 2013  01 09  -20.9976 26028.2 -03500.0 -07.6585 26262.5
 28 10 2013  01 10  -20.9978 26028.1 -03499.9 -07.6584 26262.3
 28 10 2013  01 11  -20.9980 26028.1 -03499.9 -07.6585 26262.4
 28 10 2013  01 12  -20.9982 26028.0 -03499.9 -07.6585 26262.3
 28 10 2013  01 13  -20.9982 26027.9 -03499.8 -07.6583 26262.1
 28 10 2013  01 14  -20.9982 26027.9 -03499.9 -07.6584 26262.2
 28 10 2013  01 15  -20.9982 26028.0 -03499.9 -07.6585 26262.2
 28 10 2013  01 16  -20.9983 26027.9 -03500.0 -07.6586 26262.2
 28 10 2013  01 17  -20.9983 26028.0 -03500.0 -07.6586 26262.2
 28 10 2013  01 18  -20.9982 26027.9 -03500.0 -07.6586 26262.2
 28 10 2013  01 19  -20.9983 26027.9 -03500.0 -07.6586 26262.1
 28 10 2013  01 20  -20.9981 26027.9 -03500.0 -07.6587 26262.1
 28 10 2013  01 21  -20.9982 26027.9 -03500.0 -07.6587 26262.2
 28 10 2013  01 22  -20.9983 26027.8 -03500.1 -07.6588 26262.1
 28 10 2013  01 23  -20.9985 26027.7 -03500.1 -07.6589 26262.0
 28 10 2013  01 24  -20.9985 26027.6 -03500.0 -07.6588 26261.9
 28 10 2013  01 25  -20.9984 26027.5 -03500.0 -07.6588 26261.7
 28 10 2013  01 26  -20.9985 26027.5 -03500.0 -07.6588 26261.7
 28 10 2013  01 27  -20.9986 26027.5 -03500.1 -07.6589 26261.8
 28 10 2013  01 28  -20.9987 26027.7 -03500.2 -07.6592 26262.0
 28 10 2013  01 29  -20.9987 26027.8 -03500.3 -07.6594 26262.1
 28 10 2013  01 30  -20.9987 26027.8 -03500.3 -07.6594 26262.1
 28 10 2013  01 31  -20.9987 26027.8 -03500.3 -07.6594 26262.1
 28 10 2013  01 32  -20.9985 26027.7 -03500.3 -07.6594 26262.0
 28 10 2013  01 33  -20.9985 26027.5 -03500.2 -07.6592 26261.8
 28 10 2013  01 34  -20.9988 26027.2 -03500.1 -07.6591 26261.5
 28 10 2013  01 35  -20.9990 26026.7 -03499.9 -07.6588 26261.0
 28 10 2013  01 36  -20.9992 26026.3 -03499.7 -07.6585 26260.5
 28 10 2013  01 37  -20.9995 26025.9 -03499.5 -07.6582 26260.2
 28 10 2013  01 38  -20.9995 26025.9 -03499.6 -07.6583 26260.2
 28 10 2013  01 39  -20.9993 26026.1 -03499.7 -07.6585 26260.3
 28 10 2013  01 40  -20.9991 26026.3 -03499.8 -07.6588 26260.5
 28 10 2013  01 41  -20.9989 26026.4 -03499.9 -07.6590 26260.7
 28 10 2013  01 42  -20.9989 26026.5 -03500.0 -07.6591 26260.8
 28 10 2013  01 43  -20.9990 26026.6 -03500.1 -07.6592 26260.9
 28 10 2013  01 44  -20.9991 26026.6 -03500.2 -07.6594 26260.9
 28 10 2013  01 45  -20.9991 26026.7 -03500.2 -07.6594 26261.0
 28 10 2013  01 46  -20.9991 26026.7 -03500.2 -07.6595 26261.1
 28 10 2013  01 47  -20.9992 26026.6 -03500.2 -07.6594 26260.9
 28 10 2013  01 48  -20.9992 26026.4 -03500.0 -07.6592 26260.6
 28 10 2013  01 49  -20.9992 26026.2 -03499.9 -07.6590 26260.4
 28 10 2013  01 50  -20.9993 26026.0 -03499.9 -07.6589 26260.3
 28 10 2013  01 51  -20.9993 26025.9 -03499.8 -07.6589 26260.2
 28 10 2013  01 52  -20.9994 26026.0 -03499.9 -07.6590 26260.2
 28 10 2013  01 53  -20.9993 26026.1 -03500.0 -07.6591 26260.4
 28 10 2013  01 54  -20.9992 26026.3 -03500.1 -07.6594 26260.6
 28 10 2013  01 55  -20.9989 26026.5 -03500.2 -07.6595 26260.8
 28 10 2013  01 56  -20.9988 26026.7 -03500.4 -07.6598 26261.0
 28 10 2013  01 57  -20.9987 26026.8 -03500.5 -07.6600 26261.2
 28 10 2013  01 58  -20.9987 26026.9 -03500.5 -07.6600 26261.2
 28 10 2013  01 59  -20.9989 26026.8 -03500.5 -07.6600 26261.1
 28 10 2013  02 00  -20.9989 26026.6 -03500.4 -07.6599 26261.0
 28 10 2013  02 01  -20.9989 26026.5 -03500.4 -07.6599 26260.9
 28 10 2013  02 02  -20.9987 26026.5 -03500.4 -07.6599 26260.8
 28 10 2013  02 03  -20.9987 26026.4 -03500.4 -07.6599 26260.8
 28 10 2013  02 04  -20.9989 26026.3 -03500.4 -07.6600 26260.7
 28 10 2013  02 05  -20.9990 26026.3 -03500.4 -07.6600 26260.6
 28 10 2013  02 06  -20.9991 26026.3 -03500.5 -07.6601 26260.6
 28 10 2013  02 07  -20.9991 26026.2 -03500.5 -07.6602 26260.5
 28 10 2013  02 08  -20.9991 26026.1 -03500.5 -07.6602 26260.4
 28 10 2013  02 09  -20.9991 26026.1 -03500.5 -07.6602 26260.5
 28 10 2013  02 10  -20.9993 26026.2 -03500.6 -07.6605 26260.5
 28 10 2013  02 11  -20.9992 26026.2 -03500.7 -07.6606 26260.6
 28 10 2013  02 12  -20.9993 26026.2 -03500.7 -07.6607 26260.6
 28 10 2013  02 13  -20.9993 26026.2 -03500.8 -07.6609 26260.6
 28 10 2013  02 14  -20.9993 26026.1 -03500.8 -07.6609 26260.5
 28 10 2013  02 15  -20.9993 26026.0 -03500.8 -07.6609 26260.4
 28 10 2013  02 16  -20.9995 26025.9 -03500.8 -07.6610 26260.3
 28 10 2013  02 17  -20.9994 26025.8 -03500.8 -07.6610 26260.2
 28 10 2013  02 18  -20.9994 26025.8 -03500.8 -07.6611 26260.2
 28 10 2013  02 19  -20.9995 26025.7 -03500.9 -07.6612 26260.1
 28 10 2013  02 20  -20.9995 26025.7 -03500.9 -07.6613 26260.1
 28 10 2013  02 21  -20.9995 26025.8 -03501.1 -07.6616 26260.2
 28 10 2013  02 22  -20.9998 26025.9 -03501.2 -07.6619 26260.3
 28 10 2013  02 23  -20.9998 26026.0 -03501.4 -07.6622 26260.5
 28 10 2013  02 24  -20.9998 26026.1 -03501.5 -07.6625 26260.6
 28 10 2013  02 25  -20.9997 26026.2 -03501.6 -07.6627 26260.7
 28 10 2013  02 26  -20.9999 26026.2 -03501.7 -07.6629 26260.7
 28 10 2013  02 27  -21.0004 26026.0 -03501.7 -07.6629 26260.5
 28 10 2013  02 28  -21.0008 26026.0 -03501.7 -07.6630 26260.5
 28 10 2013  02 29  -21.0012 26026.0 -03501.8 -07.6631 26260.5
 28 10 2013  02 30  -21.0017 26025.7 -03501.7 -07.6631 26260.2
 28 10 2013  02 31  -21.0021 26025.5 -03501.7 -07.6631 26260.0
 28 10 2013  02 32  -21.0024 26025.4 -03501.7 -07.6631 26259.9
 28 10 2013  02 33  -21.0030 26025.1 -03501.7 -07.6631 26259.7
 28 10 2013  02 34  -21.0035 26025.0 -03501.7 -07.6631 26259.5
 28 10 2013  02 35  -21.0040 26024.9 -03501.7 -07.6632 26259.4
 28 10 2013  02 36  -21.0044 26024.8 -03501.7 -07.6633 26259.3
 28 10 2013  02 37  -21.0049 26024.8 -03501.8 -07.6634 26259.4
 28 10 2013  02 38  -21.0054 26024.9 -03501.8 -07.6635 26259.4
 28 10 2013  02 39  -21.0059 26024.9 -03501.9 -07.6637 26259.4
 28 10 2013  02 40  -21.0066 26024.9 -03502.0 -07.6638 26259.5
 28 10 2013  02 41  -21.0072 26025.1 -03502.1 -07.6640 26259.7
 28 10 2013  02 42  -21.0075 26025.3 -03502.2 -07.6642 26259.8
 28 10 2013  02 43  -21.0082 26025.4 -03502.3 -07.6643 26260.0
 28 10 2013  02 44  -21.0087 26025.5 -03502.3 -07.6644 26260.1
 28 10 2013  02 45  -21.0093 26025.5 -03502.3 -07.6643 26260.1
 28 10 2013  02 46  -21.0099 26025.5 -03502.3 -07.6643 26260.1
 28 10 2013  02 47  -21.0103 26025.5 -03502.2 -07.6642 26260.1
 28 10 2013  02 48  -21.0106 26025.7 -03502.2 -07.6641 26260.3
 28 10 2013  02 49  -21.0112 26025.3 -03502.0 -07.6638 26259.9
 28 10 2013  02 50  -21.0117 26025.1 -03501.8 -07.6634 26259.7
 28 10 2013  02 51  -21.0124 26025.0 -03501.8 -07.6633 26259.5
 28 10 2013  02 52  -21.0132 26024.8 -03501.6 -07.6631 26259.3
 28 10 2013  02 53  -21.0140 26024.7 -03501.5 -07.6628 26259.2
 28 10 2013  02 54  -21.0145 26024.6 -03501.4 -07.6626 26259.1
 28 10 2013  02 55  -21.0150 26024.5 -03501.2 -07.6623 26259.0
 28 10 2013  02 56  -21.0157 26024.6 -03501.2 -07.6622 26259.1
 28 10 2013  02 57  -21.0161 26024.8 -03501.2 -07.6621 26259.2
 28 10 2013  02 58  -21.0166 26025.0 -03501.2 -07.6622 26259.5
 28 10 2013  02 59  -21.0168 26025.2 -03501.2 -07.6621 26259.6
 28 10 2013  03 00  -21.0171 26025.3 -03501.2 -07.6620 26259.8
 28 10 2013  03 01  -21.0174 26025.4 -03501.1 -07.6618 26259.8
 28 10 2013  03 02  -21.0175 26025.5 -03501.0 -07.6616 26260.0
 28 10 2013  03 03  -21.0177 26025.6 -03500.9 -07.6614 26260.0
 28 10 2013  03 04  -21.0176 26025.5 -03500.8 -07.6611 26259.9
 28 10 2013  03 05  -21.0177 26025.3 -03500.6 -07.6606 26259.6
 28 10 2013  03 06  -21.0183 26025.3 -03500.5 -07.6604 26259.7
 28 10 2013  03 07  -21.0187 26025.2 -03500.4 -07.6603 26259.6
 28 10 2013  03 08  -21.0187 26025.1 -03500.2 -07.6599 26259.5
 28 10 2013  03 09  -21.0185 26025.3 -03500.2 -07.6598 26259.6
 28 10 2013  03 10  -21.0181 26025.5 -03500.2 -07.6598 26259.9
 28 10 2013  03 11  -21.0176 26025.9 -03500.3 -07.6598 26260.2
 28 10 2013  03 12  -21.0171 26026.3 -03500.4 -07.6599 26260.6
 28 10 2013  03 13  -21.0168 26026.3 -03500.4 -07.6599 26260.6
 28 10 2013  03 14  -21.0168 26026.3 -03500.3 -07.6597 26260.6
 28 10 2013  03 15  -21.0168 26026.3 -03500.2 -07.6595 26260.6
 28 10 2013  03 16  -21.0168 26026.4 -03500.2 -07.6595 26260.7
 28 10 2013  03 17  -21.0165 26026.5 -03500.2 -07.6594 26260.8
 28 10 2013  03 18  -21.0163 26026.5 -03500.1 -07.6593 26260.8
 28 10 2013  03 19  -21.0158 26026.5 -03500.0 -07.6591 26260.8
 28 10 2013  03 20  -21.0154 26026.4 -03499.9 -07.6589 26260.7
 28 10 2013  03 21  -21.0152 26026.4 -03499.8 -07.6588 26260.6
 28 10 2013  03 22  -21.0149 26026.5 -03499.8 -07.6587 26260.7
 28 10 2013  03 23  -21.0147 26026.5 -03499.8 -07.6586 26260.7
 28 10 2013  03 24  -21.0145 26026.5 -03499.7 -07.6585 26260.7
 28 10 2013  03 25  -21.0139 26026.5 -03499.7 -07.6584 26260.8
 28 10 2013  03 26  -21.0135 26026.5 -03499.6 -07.6582 26260.7
 28 10 2013  03 27  -21.0130 26026.6 -03499.6 -07.6581 26260.8
 28 10 2013  03 28  -21.0125 26026.6 -03499.6 -07.6582 26260.9
 28 10 2013  03 29  -21.0123 26026.5 -03499.5 -07.6580 26260.8
 28 10 2013  03 30  -21.0121 26026.5 -03499.5 -07.6579 26260.7
 28 10 2013  03 31  -21.0118 26026.6 -03499.4 -07.6578 26260.8
 28 10 2013  03 32  -21.0115 26026.5 -03499.4 -07.6578 26260.7
 28 10 2013  03 33  -21.0112 26026.5 -03499.3 -07.6577 26260.6
 28 10 2013  03 34  -21.0107 26026.4 -03499.3 -07.6575 26260.6
 28 10 2013  03 35  -21.0104 26026.4 -03499.2 -07.6575 26260.6
 28 10 2013  03 36  -21.0098 26026.4 -03499.2 -07.6574 26260.6
 28 10 2013  03 37  -21.0093 26026.4 -03499.2 -07.6574 26260.6
 28 10 2013  03 38  -21.0090 26026.5 -03499.2 -07.6574 26260.7
 28 10 2013  03 39  -21.0088 26026.5 -03499.2 -07.6574 26260.7
 28 10 2013  03 40  -21.0085 26026.5 -03499.2 -07.6574 26260.7
 28 10 2013  03 41  -21.0079 26026.5 -03499.3 -07.6574 26260.7
 28 10 2013  03 42  -21.0076 26026.6 -03499.3 -07.6575 26260.8
 28 10 2013  03 43  -21.0071 26026.5 -03499.2 -07.6574 26260.7
 28 10 2013  03 44  -21.0070 26026.5 -03499.2 -07.6573 26260.7
 28 10 2013  03 45  -21.0069 26026.5 -03499.2 -07.6573 26260.7
 28 10 2013  03 46  -21.0065 26026.5 -03499.2 -07.6573 26260.6
 28 10 2013  03 47  -21.0059 26026.6 -03499.2 -07.6574 26260.8
 28 10 2013  03 48  -21.0053 26026.6 -03499.2 -07.6574 26260.8
 28 10 2013  03 49  -21.0051 26026.7 -03499.3 -07.6575 26260.9
 28 10 2013  03 50  -21.0050 26026.8 -03499.4 -07.6576 26261.0
 28 10 2013  03 51  -21.0047 26027.0 -03499.5 -07.6579 26261.3
 28 10 2013  03 52  -21.0041 26027.4 -03499.6 -07.6581 26261.6
 28 10 2013  03 53  -21.0038 26027.4 -03499.6 -07.6581 26261.6
 28 10 2013  03 54  -21.0038 26027.1 -03499.6 -07.6580 26261.3
 28 10 2013  03 55  -21.0039 26027.0 -03499.5 -07.6578 26261.3
 28 10 2013  03 56  -21.0038 26027.1 -03499.6 -07.6579 26261.4
 28 10 2013  03 57  -21.0034 26027.4 -03499.6 -07.6580 26261.6
 28 10 2013  03 58  -21.0030 26027.5 -03499.7 -07.6581 26261.7
 28 10 2013  03 59  -21.0026 26027.3 -03499.6 -07.6580 26261.5
 28 10 2013  04 00  -21.0024 26027.2 -03499.6 -07.6580 26261.4
 28 10 2013  04 01  -21.0024 26027.2 -03499.6 -07.6580 26261.4
 28 10 2013  04 02  -21.0023 26027.3 -03499.7 -07.6582 26261.6
 28 10 2013  04 03  -21.0020 26027.5 -03499.8 -07.6583 26261.7
 28 10 2013  04 04  -21.0019 26027.5 -03499.8 -07.6584 26261.8
 28 10 2013  04 05  -21.0019 26027.6 -03499.9 -07.6585 26261.9
 28 10 2013  04 06  -21.0017 26027.6 -03499.9 -07.6586 26261.9
 28 10 2013  04 07  -21.0014 26027.8 -03500.0 -07.6587 26262.1
 28 10 2013  04 08  -21.0012 26028.0 -03500.1 -07.6589 26262.2
 28 10 2013  04 09  -21.0008 26028.0 -03500.1 -07.6589 26262.3
 28 10 2013  04 10  -21.0007 26028.1 -03500.2 -07.6590 26262.4
 28 10 2013  04 11  -21.0006 26028.1 -03500.2 -07.6591 26262.4
 28 10 2013  04 12  -21.0004 26028.0 -03500.2 -07.6591 26262.3
 28 10 2013  04 13  -21.0004 26028.1 -03500.2 -07.6591 26262.4
 28 10 2013  04 14  -21.0002 26028.1 -03500.2 -07.6591 26262.4
 28 10 2013  04 15  -21.0001 26028.1 -03500.3 -07.6592 26262.4
 28 10 2013  04 16  -21.0002 26028.1 -03500.3 -07.6593 26262.4
 28 10 2013  04 17  -21.0002 26028.3 -03500.4 -07.6594 26262.6
 28 10 2013  04 18  -21.0004 26028.5 -03500.5 -07.6597 26262.8
 28 10 2013  04 19  -21.0002 26028.6 -03500.6 -07.6598 26262.9
 28 10 2013  04 20  -20.9997 26028.9 -03500.8 -07.6600 26263.3
 28 10 2013  04 21  -20.9996 26029.4 -03501.0 -07.6604 26263.8
 28 10 2013  04 22  -20.9991 26029.6 -03501.1 -07.6606 26264.0
 28 10 2013  04 23  -20.9987 26029.6 -03501.1 -07.6606 26264.1
 28 10 2013  04 24  -20.9981 26029.7 -03501.2 -07.6607 26264.1
 28 10 2013  04 25  -20.9974 26029.9 -03501.3 -07.6608 26264.3
 28 10 2013  04 26  -20.9970 26029.9 -03501.3 -07.6608 26264.3
 28 10 2013  04 27  -20.9971 26029.7 -03501.2 -07.6607 26264.1
 28 10 2013  04 28  -20.9974 26029.5 -03501.1 -07.6606 26263.9
 28 10 2013  04 29  -20.9978 26029.5 -03501.1 -07.6607 26263.9
 28 10 2013  04 30  -20.9980 26029.4 -03501.1 -07.6607 26263.8
 28 10 2013  04 31  -20.9978 26029.3 -03501.1 -07.6606 26263.7
 28 10 2013  04 32  -20.9976 26029.2 -03501.0 -07.6605 26263.6
 28 10 2013  04 33  -20.9977 26029.0 -03500.9 -07.6603 26263.4
 28 10 2013  04 34  -20.9980 26028.6 -03500.8 -07.6602 26263.0
 28 10 2013  04 35  -20.9980 26028.4 -03500.7 -07.6600 26262.8
 28 10 2013  04 36  -20.9979 26028.6 -03500.7 -07.6601 26262.9
 28 10 2013  04 37  -20.9979 26028.4 -03500.8 -07.6602 26262.8
 28 10 2013  04 38  -20.9983 26028.2 -03500.7 -07.6600 26262.6
 28 10 2013  04 39  -20.9986 26028.3 -03500.7 -07.6601 26262.6
 28 10 2013  04 40  -20.9987 26028.4 -03500.8 -07.6602 26262.7
 28 10 2013  04 41  -20.9987 26028.7 -03501.0 -07.6605 26263.1
 28 10 2013  04 42  -20.9986 26029.0 -03501.1 -07.6608 26263.4
 28 10 2013  04 43  -20.9986 26029.2 -03501.2 -07.6609 26263.6
 28 10 2013  04 44  -20.9983 26029.3 -03501.3 -07.6610 26263.7
 28 10 2013  04 45  -20.9978 26029.4 -03501.3 -07.6611 26263.8
 28 10 2013  04 46  -20.9975 26029.5 -03501.4 -07.6611 26263.9
 28 10 2013  04 47  -20.9971 26029.4 -03501.3 -07.6611 26263.8
 28 10 2013  04 48  -20.9968 26029.3 -03501.3 -07.6610 26263.8
 28 10 2013  04 49  -20.9973 26029.2 -03501.2 -07.6610 26263.6
 28 10 2013  04 50  -20.9977 26029.0 -03501.2 -07.6610 26263.4
 28 10 2013  04 51  -20.9977 26029.1 -03501.2 -07.6610 26263.5
 28 10 2013  04 52  -20.9975 26029.2 -03501.2 -07.6610 26263.6
 28 10 2013  04 53  -20.9973 26029.0 -03501.2 -07.6609 26263.5
 28 10 2013  04 54  -20.9977 26028.9 -03501.1 -07.6608 26263.3
 28 10 2013  04 55  -20.9982 26028.8 -03501.1 -07.6608 26263.2
 28 10 2013  04 56  -20.9984 26028.9 -03501.1 -07.6608 26263.3
 28 10 2013  04 57  -20.9983 26028.8 -03501.1 -07.6607 26263.2
 28 10 2013  04 58  -20.9983 26028.8 -03501.1 -07.6608 26263.2
 28 10 2013  04 59  -20.9985 26028.8 -03501.1 -07.6608 26263.2
 28 10 2013  05 00  -20.9987 26028.7 -03501.1 -07.6607 26263.1
 28 10 2013  05 01  -20.9991 26028.7 -03501.1 -07.6607 26263.1
 28 10 2013  05 02  -20.9993 26028.7 -03501.0 -07.6607 26263.1
 28 10 2013  05 03  -20.9992 26028.6 -03501.0 -07.6606 26263.0
 28 10 2013  05 04  -20.9993 26028.4 -03500.9 -07.6605 26262.8
 28 10 2013  05 05  -20.9997 26028.2 -03500.8 -07.6603 26262.5
 28 10 2013  05 06  -21.0003 26028.0 -03500.7 -07.6601 26262.4
 28 10 2013  05 07  -21.0009 26028.1 -03500.8 -07.6602 26262.4
 28 10 2013  05 08  -21.0008 26028.2 -03500.8 -07.6603 26262.6
 28 10 2013  05 09  -21.0004 26028.2 -03500.7 -07.6602 26262.6
 28 10 2013  05 10  -21.0006 26028.1 -03500.7 -07.6601 26262.4
 28 10 2013  05 11  -21.0008 26027.9 -03500.6 -07.6600 26262.2
 28 10 2013  05 12  -21.0008 26027.7 -03500.5 -07.6599 26262.0
 28 10 2013  05 13  -21.0014 26027.6 -03500.5 -07.6598 26261.9
 28 10 2013  05 14  -21.0018 26027.6 -03500.5 -07.6598 26261.9
 28 10 2013  05 15  -21.0022 26027.8 -03500.6 -07.6600 26262.2
 28 10 2013  05 16  -21.0029 26028.3 -03500.9 -07.6604 26262.7
 28 10 2013  05 17  -21.0020 26028.8 -03501.1 -07.6607 26263.2
 28 10 2013  05 18  -21.0002 26029.2 -03501.2 -07.6609 26263.6
 28 10 2013  05 19  -20.9986 26029.3 -03501.2 -07.6609 26263.7
 28 10 2013  05 20  -20.9972 26029.2 -03501.1 -07.6608 26263.6
 28 10 2013  05 21  -20.9964 26028.9 -03501.0 -07.6606 26263.3
 28 10 2013  05 22  -20.9962 26028.6 -03501.0 -07.6606 26263.0
 28 10 2013  05 23  -20.9965 26028.4 -03501.0 -07.6606 26262.8
 28 10 2013  05 24  -20.9966 26028.3 -03501.0 -07.6608 26262.8
 28 10 2013  05 25  -20.9972 26028.5 -03501.2 -07.6610 26262.9
 28 10 2013  05 26  -20.9983 26028.7 -03501.4 -07.6614 26263.1
 28 10 2013  05 27  -20.9980 26028.9 -03501.4 -07.6615 26263.4
 28 10 2013  05 28  -20.9979 26029.2 -03501.5 -07.6616 26263.6
 28 10 2013  05 29  -20.9978 26029.6 -03501.7 -07.6619 26264.1
 28 10 2013  05 30  -20.9970 26030.0 -03501.9 -07.6621 26264.5
 28 10 2013  05 31  -20.9964 26030.2 -03502.0 -07.6623 26264.7
 28 10 2013  05 32  -20.9955 26030.2 -03502.0 -07.6622 26264.7
 28 10 2013  05 33  -20.9952 26030.1 -03501.9 -07.6622 26264.6
 28 10 2013  05 34  -20.9952 26030.1 -03502.0 -07.6623 26264.6
 28 10 2013  05 35  -20.9950 26030.2 -03502.1 -07.6624 26264.7
 28 10 2013  05 36  -20.9948 26030.3 -03502.1 -07.6626 26264.8
 28 10 2013  05 37  -20.9944 26029.8 -03501.9 -07.6623 26264.3
 28 10 2013  05 38  -20.9951 26029.2 -03501.7 -07.6619 26263.7
 28 10 2013  05 39  -20.9966 26028.7 -03501.4 -07.6615 26263.1
 28 10 2013  05 40  -20.9979 26028.7 -03501.4 -07.6614 26263.1
 28 10 2013  05 41  -20.9991 26028.8 -03501.5 -07.6617 26263.3
 28 10 2013  05 42  -20.9993 26028.9 -03501.6 -07.6617 26263.4
 28 10 2013  05 43  -20.9992 26028.8 -03501.5 -07.6616 26263.2
 28 10 2013  05 44  -20.9996 26028.4 -03501.2 -07.6612 26262.9
 28 10 2013  05 45  -20.9998 26028.0 -03501.0 -07.6609 26262.4
 28 10 2013  05 46  -21.0001 26027.3 -03500.6 -07.6602 26261.6
 28 10 2013  05 47  -21.0014 26026.8 -03500.4 -07.6598 26261.1
 28 10 2013  05 48  -21.0027 26026.5 -03500.3 -07.6597 26260.8
 28 10 2013  05 49  -21.0033 26026.5 -03500.2 -07.6596 26260.8
 28 10 2013  05 50  -21.0037 26026.5 -03500.3 -07.6596 26260.8
 28 10 2013  05 51  -21.0041 26026.5 -03500.3 -07.6597 26260.9
 28 10 2013  05 52  -21.0040 26026.7 -03500.3 -07.6597 26261.0
 28 10 2013  05 53  -21.0038 26026.8 -03500.4 -07.6598 26261.1
 28 10 2013  05 54  -21.0036 26026.8 -03500.4 -07.6599 26261.1
 28 10 2013  05 55  -21.0034 26026.7 -03500.4 -07.6598 26261.1
 28 10 2013  05 56  -21.0034 26026.8 -03500.4 -07.6599 26261.1
 28 10 2013  05 57  -21.0033 26026.9 -03500.5 -07.6601 26261.3
 28 10 2013  05 58  -21.0033 26027.0 -03500.6 -07.6602 26261.4
 28 10 2013  05 59  -21.0034 26027.1 -03500.7 -07.6603 26261.4
 28 10 2013  06 00  -21.0034 26027.0 -03500.6 -07.6602 26261.4
 28 10 2013  06 01  -21.0033 26027.0 -03500.6 -07.6601 26261.3
 28 10 2013  06 02  -21.0034 26027.0 -03500.6 -07.6602 26261.3
 28 10 2013  06 03  -21.0034 26027.1 -03500.6 -07.6603 26261.5
 28 10 2013  06 04  -21.0035 26027.1 -03500.7 -07.6603 26261.5
 28 10 2013  06 05  -21.0035 26027.1 -03500.7 -07.6604 26261.5
 28 10 2013  06 06  -21.0036 26027.2 -03500.7 -07.6603 26261.6
 28 10 2013  06 07  -21.0037 26027.2 -03500.7 -07.6604 26261.6
 28 10 2013  06 08  -21.0037 26027.2 -03500.7 -07.6603 26261.6
 28 10 2013  06 09  -21.0039 26027.3 -03500.7 -07.6604 26261.6
 28 10 2013  06 10  -21.0042 26027.3 -03500.7 -07.6604 26261.6
 28 10 2013  06 11  -21.0042 26027.2 -03500.7 -07.6604 26261.6
 28 10 2013  06 12  -21.0043 26027.3 -03500.7 -07.6604 26261.7
 28 10 2013  06 13  -21.0048 26027.4 -03500.8 -07.6605 26261.8
 28 10 2013  06 14  -21.0050 26027.3 -03500.8 -07.6605 26261.7
 28 10 2013  06 15  -21.0049 26027.3 -03500.7 -07.6603 26261.7
 28 10 2013  06 16  -21.0045 26027.3 -03500.6 -07.6602 26261.6
 28 10 2013  06 17  -21.0044 26026.9 -03500.4 -07.6598 26261.3
 28 10 2013  06 18  -21.0052 26026.8 -03500.3 -07.6597 26261.1
 28 10 2013  06 19  -21.0059 26026.9 -03500.4 -07.6598 26261.3
 28 10 2013  06 20  -21.0062 26027.1 -03500.5 -07.6600 26261.5
 28 10 2013  06 21  -21.0062 26027.2 -03500.6 -07.6601 26261.6
 28 10 2013  06 22  -21.0063 26027.3 -03500.5 -07.6600 26261.6
 28 10 2013  06 23  -21.0068 26027.1 -03500.5 -07.6599 26261.5
 28 10 2013  06 24  -21.0071 26027.0 -03500.4 -07.6598 26261.4
 28 10 2013  06 25  -21.0072 26027.0 -03500.3 -07.6596 26261.3
 28 10 2013  06 26  -21.0070 26027.0 -03500.2 -07.6594 26261.3
 28 10 2013  06 27  -21.0067 26027.0 -03500.2 -07.6594 26261.3
 28 10 2013  06 28  -21.0064 26027.1 -03500.2 -07.6594 26261.4
 28 10 2013  06 29  -21.0063 26027.1 -03500.2 -07.6594 26261.4
 28 10 2013  06 30  -21.0062 26027.1 -03500.3 -07.6594 26261.4
 28 10 2013  06 31  -21.0060 26027.2 -03500.3 -07.6594 26261.5
 28 10 2013  06 32  -21.0059 26027.4 -03500.3 -07.6596 26261.7
 28 10 2013  06 33  -21.0058 26027.4 -03500.4 -07.6597 26261.8
 28 10 2013  06 34  -21.0057 26027.5 -03500.4 -07.6597 26261.8
 28 10 2013  06 35  -21.0058 26027.6 -03500.5 -07.6598 26261.9
 28 10 2013  06 36  -21.0058 26027.8 -03500.6 -07.6600 26262.1
 28 10 2013  06 37  -21.0057 26027.9 -03500.6 -07.6600 26262.2
 28 10 2013  06 38  -21.0058 26027.9 -03500.7 -07.6601 26262.3
 28 10 2013  06 39  -21.0059 26027.9 -03500.6 -07.6600 26262.3
 28 10 2013  06 40  -21.0060 26027.9 -03500.6 -07.6600 26262.2
 28 10 2013  06 41  -21.0059 26027.9 -03500.6 -07.6599 26262.3
 28 10 2013  06 42  -21.0058 26028.0 -03500.6 -07.6599 26262.3
 28 10 2013  06 43  -21.0058 26028.0 -03500.6 -07.6599 26262.3
 28 10 2013  06 44  -21.0059 26027.9 -03500.5 -07.6598 26262.3
 28 10 2013  06 45  -21.0059 26027.9 -03500.5 -07.6597 26262.3
 28 10 2013  06 46  -21.0059 26028.0 -03500.5 -07.6598 26262.3
 28 10 2013  06 47  -21.0059 26028.0 -03500.5 -07.6598 26262.3
 28 10 2013  06 48  -21.0060 26027.9 -03500.5 -07.6598 26262.2
 28 10 2013  06 49  -21.0061 26027.9 -03500.5 -07.6598 26262.2
 28 10 2013  06 50  -21.0060 26027.9 -03500.5 -07.6597 26262.3
 28 10 2013  06 51  -21.0057 26028.0 -03500.5 -07.6597 26262.3
 28 10 2013  06 52  -21.0056 26028.0 -03500.5 -07.6597 26262.3
 28 10 2013  06 53  -21.0054 26027.9 -03500.5 -07.6596 26262.2
 28 10 2013  06 54  -21.0053 26027.9 -03500.4 -07.6596 26262.2
 28 10 2013  06 55  -21.0053 26027.8 -03500.4 -07.6595 26262.1
 28 10 2013  06 56  -21.0052 26027.8 -03500.4 -07.6596 26262.1
 28 10 2013  06 57  -21.0051 26027.8 -03500.4 -07.6596 26262.1
 28 10 2013  06 58  -21.0049 26027.7 -03500.4 -07.6596 26262.1
 28 10 2013  06 59  -21.0047 26027.7 -03500.5 -07.6597 26262.1
 28 10 2013  07 00  -21.0045 26027.8 -03500.5 -07.6598 26262.1
 28 10 2013  07 01  -21.0043 26027.8 -03500.5 -07.6599 26262.1
 28 10 2013  07 02  -21.0042 26027.8 -03500.5 -07.6599 26262.1
 28 10 2013  07 03  -21.0040 26027.8 -03500.6 -07.6599 26262.1
 28 10 2013  07 04  -21.0040 26027.8 -03500.6 -07.6600 26262.2
 28 10 2013  07 05  -21.0041 26027.9 -03500.7 -07.6602 26262.3
 28 10 2013  07 06  -21.0040 26028.0 -03500.8 -07.6603 26262.4
 28 10 2013  07 07  -21.0039 26028.2 -03500.9 -07.6605 26262.6
 28 10 2013  07 08  -21.0037 26028.4 -03501.0 -07.6607 26262.8
 28 10 2013  07 09  -21.0036 26028.6 -03501.1 -07.6609 26263.0
 28 10 2013  07 10  -21.0036 26028.7 -03501.2 -07.6610 26263.1
 28 10 2013  07 11  -21.0035 26028.9 -03501.3 -07.6612 26263.3
 28 10 2013  07 12  -21.0033 26029.2 -03501.4 -07.6614 26263.6
 28 10 2013  07 13  -21.0032 26029.5 -03501.6 -07.6617 26264.0
 28 10 2013  07 14  -21.0031 26029.9 -03501.8 -07.6620 26264.4
 28 10 2013  07 15  -21.0030 26030.1 -03501.9 -07.6621 26264.6
 28 10 2013  07 16  -21.0028 26030.2 -03501.9 -07.6622 26264.7
 28 10 2013  07 17  -21.0027 26030.3 -03502.0 -07.6622 26264.8
 28 10 2013  07 18  -21.0025 26030.4 -03502.0 -07.6623 26264.9
 28 10 2013  07 19  -21.0023 26030.5 -03502.1 -07.6624 26265.0
 28 10 2013  07 20  -21.0021 26030.6 -03502.1 -07.6624 26265.1
 28 10 2013  07 21  -21.0020 26030.6 -03502.1 -07.6624 26265.1
 28 10 2013  07 22  -21.0018 26030.6 -03502.1 -07.6624 26265.1
 28 10 2013  07 23  -21.0018 26030.6 -03502.1 -07.6624 26265.1
 28 10 2013  07 24  -21.0017 26030.7 -03502.1 -07.6624 26265.2
 28 10 2013  07 25  -21.0015 26030.7 -03502.1 -07.6625 26265.3
 28 10 2013  07 26  -21.0015 26030.9 -03502.2 -07.6625 26265.4
 28 10 2013  07 27  -21.0015 26030.9 -03502.2 -07.6626 26265.5
 28 10 2013  07 28  -21.0015 26031.0 -03502.2 -07.6626 26265.5
 28 10 2013  07 29  -21.0015 26031.0 -03502.3 -07.6627 26265.5
 28 10 2013  07 30  -21.0016 26031.0 -03502.2 -07.6626 26265.5
 28 10 2013  07 31  -21.0016 26031.0 -03502.3 -07.6628 26265.6
 28 10 2013  07 32  -21.0018 26031.1 -03502.3 -07.6628 26265.7
 28 10 2013  07 33  -21.0019 26031.2 -03502.4 -07.6629 26265.7
 28 10 2013  07 34  -21.0019 26031.2 -03502.4 -07.6629 26265.8
 28 10 2013  07 35  -21.0020 26031.3 -03502.5 -07.6631 26265.9
 28 10 2013  07 36  -21.0020 26031.4 -03502.5 -07.6631 26266.0
 28 10 2013  07 37  -21.0020 26031.4 -03502.5 -07.6630 26266.0
 28 10 2013  07 38  -21.0019 26031.3 -03502.4 -07.6629 26265.8
 28 10 2013  07 39  -21.0018 26031.2 -03502.4 -07.6628 26265.7
 28 10 2013  07 40  -21.0018 26031.1 -03502.3 -07.6627 26265.6
 28 10 2013  07 41  -21.0019 26031.0 -03502.3 -07.6626 26265.5
 28 10 2013  07 42  -21.0019 26031.0 -03502.3 -07.6626 26265.5
 28 10 2013  07 43  -21.0020 26031.0 -03502.3 -07.6627 26265.5
 28 10 2013  07 44  -21.0020 26031.1 -03502.3 -07.6628 26265.6
 28 10 2013  07 45  -21.0020 26031.2 -03502.4 -07.6629 26265.8
 28 10 2013  07 46  -21.0021 26031.3 -03502.5 -07.6630 26265.9
 28 10 2013  07 47  -21.0022 26031.4 -03502.5 -07.6631 26266.0
 28 10 2013  07 48  -21.0023 26031.5 -03502.5 -07.6631 26266.1
 28 10 2013  07 49  -21.0023 26031.4 -03502.5 -07.6631 26266.0
 28 10 2013  07 50  -21.0023 26031.3 -03502.5 -07.6630 26265.9
 28 10 2013  07 51  -21.0023 26031.2 -03502.4 -07.6628 26265.7
 28 10 2013  07 52  -21.0024 26031.1 -03502.3 -07.6627 26265.6
 28 10 2013  07 53  -21.0024 26031.0 -03502.3 -07.6627 26265.5
 28 10 2013  07 54  -21.0024 26030.9 -03502.3 -07.6627 26265.5
 28 10 2013  07 55  -21.0025 26031.0 -03502.3 -07.6628 26265.6
 28 10 2013  07 56  -21.0026 26031.0 -03502.4 -07.6630 26265.6
 28 10 2013  07 57  -21.0026 26031.0 -03502.4 -07.6629 26265.6
 28 10 2013  07 58  -21.0027 26030.9 -03502.4 -07.6630 26265.5
 28 10 2013  07 59  -21.0027 26030.9 -03502.4 -07.6629 26265.4
 28 10 2013  08 00  -21.0028 26030.8 -03502.3 -07.6629 26265.4
 28 10 2013  08 01  -21.0028 26030.9 -03502.4 -07.6629 26265.4
 28 10 2013  08 02  -21.0027 26030.8 -03502.4 -07.6630 26265.4
 28 10 2013  08 03  -21.0026 26030.8 -03502.4 -07.6630 26265.4
 28 10 2013  08 04  -21.0026 26030.8 -03502.4 -07.6630 26265.3
 28 10 2013  08 05  -21.0025 26030.7 -03502.3 -07.6629 26265.2
 28 10 2013  08 06  -21.0027 26030.6 -03502.3 -07.6629 26265.2
 28 10 2013  08 07  -21.0028 26030.7 -03502.4 -07.6630 26265.2
 28 10 2013  08 08  -21.0029 26030.7 -03502.4 -07.6630 26265.2
 28 10 2013  08 09  -21.0029 26030.6 -03502.4 -07.6631 26265.2
 28 10 2013  08 10  -21.0029 26030.6 -03502.4 -07.6631 26265.2
 28 10 2013  08 11  -21.0029 26030.6 -03502.4 -07.6631 26265.2
 28 10 2013  08 12  -21.0028 26030.5 -03502.4 -07.6631 26265.1
 28 10 2013  08 13  -21.0027 26030.4 -03502.3 -07.6630 26265.0
 28 10 2013  08 14  -21.0026 26030.4 -03502.3 -07.6629 26265.0
 28 10 2013  08 15  -21.0025 26030.3 -03502.3 -07.6629 26264.9
 28 10 2013  08 16  -21.0025 26030.3 -03502.3 -07.6629 26264.8
 28 10 2013  08 17  -21.0023 26030.3 -03502.3 -07.6629 26264.8
 28 10 2013  08 18  -21.0019 26030.2 -03502.2 -07.6627 26264.8
 28 10 2013  08 19  -21.0017 26030.2 -03502.1 -07.6626 26264.7
 28 10 2013  08 20  -21.0015 26030.1 -03502.1 -07.6626 26264.7
 28 10 2013  08 21  -21.0013 26030.1 -03502.0 -07.6625 26264.6
 28 10 2013  08 22  -21.0010 26030.0 -03502.0 -07.6624 26264.5
 28 10 2013  08 23  -21.0007 26029.9 -03502.0 -07.6624 26264.4
 28 10 2013  08 24  -21.0003 26029.9 -03502.0 -07.6623 26264.4
 28 10 2013  08 25  -20.9997 26029.8 -03502.0 -07.6624 26264.3
 28 10 2013  08 26  -20.9993 26029.7 -03501.9 -07.6623 26264.2
 28 10 2013  08 27  -20.9988 26029.5 -03501.9 -07.6624 26264.1
 28 10 2013  08 28  -20.9983 26029.5 -03502.0 -07.6625 26264.0
 28 10 2013  08 29  -20.9978 26029.5 -03502.1 -07.6627 26264.0
 28 10 2013  08 30  -20.9970 26029.2 -03502.1 -07.6628 26263.8
 28 10 2013  08 31  -20.9964 26028.9 -03502.1 -07.6629 26263.5
 28 10 2013  08 32  -20.9961 26028.6 -03502.1 -07.6630 26263.1
 28 10 2013  08 33  -20.9959 26028.2 -03502.1 -07.6631 26262.7
 28 10 2013  08 34  -20.9954 26027.9 -03502.1 -07.6633 26262.5
 28 10 2013  08 35  -20.9948 26027.7 -03502.3 -07.6637 26262.3
 28 10 2013  08 36  -20.9942 26027.5 -03502.4 -07.6640 26262.1
 28 10 2013  08 37  -20.9938 26027.2 -03502.5 -07.6643 26261.8
 28 10 2013  08 38  -20.9937 26027.0 -03502.6 -07.6647 26261.6
 28 10 2013  08 39  -20.9938 26026.8 -03502.8 -07.6651 26261.4
 28 10 2013  08 40  -20.9934 26026.7 -03503.0 -07.6655 26261.4
 28 10 2013  08 41  -20.9932 26026.6 -03503.4 -07.6664 26261.3
 28 10 2013  08 42  -20.9929 26026.6 -03503.7 -07.6670 26261.3
 28 10 2013  08 43  -20.9927 26026.6 -03504.0 -07.6677 26261.4
 28 10 2013  08 44  -20.9927 26026.7 -03504.3 -07.6684 26261.5
 28 10 2013  08 45  -20.9928 26026.7 -03504.7 -07.6692 26261.6
 28 10 2013  08 46  -20.9929 26026.8 -03505.1 -07.6700 26261.8
 28 10 2013  08 47  -20.9931 26026.9 -03505.4 -07.6706 26261.9
 28 10 2013  08 48  -20.9935 26027.0 -03505.7 -07.6712 26262.0
 28 10 2013  08 49  -20.9939 26027.1 -03506.0 -07.6719 26262.1
 28 10 2013  08 50  -20.9944 26027.1 -03506.2 -07.6724 26262.2
 28 10 2013  08 51  -20.9950 26027.1 -03506.5 -07.6729 26262.3
 28 10 2013  08 52  -20.9957 26027.2 -03506.6 -07.6732 26262.3
 28 10 2013  08 53  -20.9963 26027.0 -03506.8 -07.6736 26262.2
 28 10 2013  08 54  -20.9969 26026.9 -03506.8 -07.6738 26262.1
 28 10 2013  08 55  -20.9974 26026.8 -03507.0 -07.6742 26262.0
 28 10 2013  08 56  -20.9979 26026.7 -03507.3 -07.6747 26261.9
 28 10 2013  08 57  -20.9984 26026.6 -03507.4 -07.6751 26261.9
 28 10 2013  08 58  -20.9989 26026.6 -03507.6 -07.6755 26261.9
 28 10 2013  08 59  -20.9997 26026.5 -03507.8 -07.6759 26261.8
 28 10 2013  09 00  -21.0003 26026.4 -03508.0 -07.6763 26261.8
 28 10 2013  09 01  -21.0011 26026.4 -03508.1 -07.6766 26261.8
 28 10 2013  09 02  -21.0019 26026.4 -03508.3 -07.6770 26261.8
 28 10 2013  09 03  -21.0026 26026.4 -03508.4 -07.6773 26261.9
 28 10 2013  09 04  -21.0034 26026.4 -03508.6 -07.6777 26261.8
 28 10 2013  09 05  -21.0041 26026.5 -03508.7 -07.6780 26261.9
 28 10 2013  09 06  -21.0050 26026.5 -03508.9 -07.6782 26261.9
 28 10 2013  09 07  -21.0058 26026.5 -03508.9 -07.6784 26261.9
 28 10 2013  09 08  -21.0066 26026.5 -03509.1 -07.6787 26262.0
 28 10 2013  09 09  -21.0076 26026.5 -03509.2 -07.6789 26262.1
 28 10 2013  09 10  -21.0083 26026.6 -03509.2 -07.6790 26262.1
 28 10 2013  09 11  -21.0090 26026.6 -03509.3 -07.6792 26262.1
 28 10 2013  09 12  -21.0098 26026.6 -03509.4 -07.6793 26262.2
 28 10 2013  09 13  -21.0108 26027.0 -03509.6 -07.6796 26262.6
 28 10 2013  09 14  -21.0121 26027.7 -03510.0 -07.6804 26263.3
 28 10 2013  09 15  -21.0124 26028.1 -03510.2 -07.6807 26263.7
 28 10 2013  09 16  -21.0121 26028.2 -03510.3 -07.6809 26263.8
 28 10 2013  09 17  -21.0120 26028.4 -03510.5 -07.6812 26264.0
 28 10 2013  09 18  -21.0121 26028.5 -03510.7 -07.6816 26264.2
 28 10 2013  09 19  -21.0132 26028.9 -03510.9 -07.6820 26264.6
 28 10 2013  09 20  -21.0148 26029.5 -03511.2 -07.6824 26265.2
 28 10 2013  09 21  -21.0161 26030.0 -03511.3 -07.6825 26265.8
 28 10 2013  09 22  -21.0169 26030.3 -03511.4 -07.6827 26266.1
 28 10 2013  09 23  -21.0177 26030.7 -03511.5 -07.6827 26266.5
 28 10 2013  09 24  -21.0183 26030.9 -03511.5 -07.6826 26266.7
 28 10 2013  09 25  -21.0190 26030.9 -03511.4 -07.6825 26266.6
 28 10 2013  09 26  -21.0199 26030.8 -03511.3 -07.6823 26266.6
 28 10 2013  09 27  -21.0208 26030.8 -03511.3 -07.6822 26266.6
 28 10 2013  09 28  -21.0211 26030.8 -03511.2 -07.6820 26266.5
 28 10 2013  09 29  -21.0214 26030.7 -03511.1 -07.6818 26266.4
 28 10 2013  09 30  -21.0217 26030.6 -03511.0 -07.6817 26266.3
 28 10 2013  09 31  -21.0221 26030.5 -03511.0 -07.6817 26266.2
 28 10 2013  09 32  -21.0229 26030.5 -03511.0 -07.6817 26266.2
 28 10 2013  09 33  -21.0237 26030.5 -03511.0 -07.6818 26266.2
 28 10 2013  09 34  -21.0240 26030.4 -03511.0 -07.6818 26266.2
 28 10 2013  09 35  -21.0243 26030.3 -03511.0 -07.6818 26266.0
 28 10 2013  09 36  -21.0250 26030.3 -03511.1 -07.6819 26266.0
 28 10 2013  09 37  -21.0255 26030.5 -03511.2 -07.6821 26266.2
 28 10 2013  09 38  -21.0262 26030.5 -03511.2 -07.6822 26266.2
 28 10 2013  09 39  -21.0273 26030.7 -03511.3 -07.6823 26266.5
 28 10 2013  09 40  -21.0280 26030.8 -03511.3 -07.6822 26266.6
 28 10 2013  09 41  -21.0283 26030.7 -03511.2 -07.6821 26266.5
 28 10 2013  09 42  -21.0287 26030.6 -03511.2 -07.6820 26266.4
 28 10 2013  09 43  -21.0289 26030.4 -03511.1 -07.6819 26266.2
 28 10 2013  09 44  -21.0294 26030.3 -03511.1 -07.6819 26266.0
 28 10 2013  09 45  -21.0301 26030.4 -03511.1 -07.6820 26266.1
 28 10 2013  09 46  -21.0306 26030.3 -03511.1 -07.6820 26266.0
 28 10 2013  09 47  -21.0311 26030.2 -03511.1 -07.6820 26266.0
 28 10 2013  09 48  -21.0313 26030.1 -03511.1 -07.6821 26265.8
 28 10 2013  09 49  -21.0318 26030.1 -03511.2 -07.6822 26265.8
 28 10 2013  09 50  -21.0326 26030.2 -03511.2 -07.6823 26266.0
 28 10 2013  09 51  -21.0334 26030.5 -03511.3 -07.6824 26266.2
 28 10 2013  09 52  -21.0341 26030.6 -03511.3 -07.6824 26266.4
 28 10 2013  09 53  -21.0349 26030.8 -03511.3 -07.6823 26266.5
 28 10 2013  09 54  -21.0356 26030.8 -03511.2 -07.6821 26266.5
 28 10 2013  09 55  -21.0366 26030.9 -03511.2 -07.6821 26266.7
 28 10 2013  09 56  -21.0376 26031.1 -03511.3 -07.6821 26266.9
 28 10 2013  09 57  -21.0375 26031.0 -03511.2 -07.6819 26266.7
 28 10 2013  09 58  -21.0377 26030.9 -03511.1 -07.6817 26266.6
 28 10 2013  09 59  -21.0378 26030.9 -03511.1 -07.6819 26266.6
 28 10 2013  10 00  -21.0380 26030.9 -03511.2 -07.6820 26266.6
 28 10 2013  10 01  -21.0384 26031.0 -03511.4 -07.6824 26266.8
 28 10 2013  10 02  -21.0388 26031.2 -03511.6 -07.6828 26267.0
 28 10 2013  10 03  -21.0392 26031.4 -03511.8 -07.6831 26267.2
 28 10 2013  10 04  -21.0396 26031.7 -03511.9 -07.6833 26267.6
 28 10 2013  10 05  -21.0403 26032.2 -03512.0 -07.6834 26268.0
 28 10 2013  10 06  -21.0412 26032.7 -03512.1 -07.6834 26268.6
 28 10 2013  10 07  -21.0422 26033.1 -03512.0 -07.6832 26268.9
 28 10 2013  10 08  -21.0433 26033.4 -03512.0 -07.6830 26269.3
 28 10 2013  10 09  -21.0443 26033.8 -03511.9 -07.6827 26269.6
 28 10 2013  10 10  -21.0449 26034.0 -03511.8 -07.6824 26269.8
 28 10 2013  10 11  -21.0451 26034.0 -03511.7 -07.6821 26269.8
 28 10 2013  10 12  -21.0454 26033.9 -03511.6 -07.6819 26269.7
 28 10 2013  10 13  -21.0454 26033.7 -03511.5 -07.6817 26269.5
 28 10 2013  10 14  -21.0453 26033.5 -03511.4 -07.6816 26269.2
 28 10 2013  10 15  -21.0455 26033.5 -03511.4 -07.6817 26269.3
 28 10 2013  10 16  -21.0462 26033.7 -03511.5 -07.6818 26269.5
 28 10 2013  10 17  -21.0467 26033.9 -03511.5 -07.6818 26269.7
 28 10 2013  10 18  -21.0474 26034.1 -03511.6 -07.6819 26269.8
 28 10 2013  10 19  -21.0479 26034.2 -03511.5 -07.6818 26269.9
 28 10 2013  10 20  -21.0483 26034.2 -03511.5 -07.6818 26269.9
 28 10 2013  10 21  -21.0488 26034.2 -03511.5 -07.6818 26269.9
 28 10 2013  10 22  -21.0490 26034.1 -03511.5 -07.6817 26269.9
 28 10 2013  10 23  -21.0495 26034.2 -03511.5 -07.6816 26270.0
 28 10 2013  10 24  -21.0501 26034.3 -03511.5 -07.6816 26270.0
 28 10 2013  10 25  -21.0503 26034.2 -03511.3 -07.6813 26269.9
 28 10 2013  10 26  -21.0509 26034.1 -03511.2 -07.6811 26269.8
 28 10 2013  10 27  -21.0517 26034.1 -03511.2 -07.6811 26269.8
 28 10 2013  10 28  -21.0523 26034.2 -03511.2 -07.6811 26269.9
 28 10 2013  10 29  -21.0523 26034.2 -03511.3 -07.6812 26269.9
 28 10 2013  10 30  -21.0525 26034.4 -03511.4 -07.6813 26270.1
 28 10 2013  10 31  -21.0530 26034.7 -03511.4 -07.6814 26270.4
 28 10 2013  10 32  -21.0535 26034.8 -03511.4 -07.6813 26270.6
 28 10 2013  10 33  -21.0542 26035.1 -03511.4 -07.6812 26270.9
 28 10 2013  10 34  -21.0542 26035.3 -03511.4 -07.6811 26271.0
 28 10 2013  10 35  -21.0544 26035.5 -03511.4 -07.6810 26271.2
 28 10 2013  10 36  -21.0544 26035.6 -03511.3 -07.6809 26271.3
 28 10 2013  10 37  -21.0544 26035.7 -03511.3 -07.6808 26271.4
 28 10 2013  10 38  -21.0545 26036.0 -03511.4 -07.6810 26271.7
 28 10 2013  10 39  -21.0547 26036.4 -03511.5 -07.6811 26272.1
 28 10 2013  10 40  -21.0547 26036.7 -03511.5 -07.6810 26272.4
 28 10 2013  10 41  -21.0549 26036.9 -03511.5 -07.6810 26272.7
 28 10 2013  10 42  -21.0552 26037.2 -03511.6 -07.6810 26273.0
 28 10 2013  10 43  -21.0554 26037.4 -03511.6 -07.6809 26273.2
 28 10 2013  10 44  -21.0558 26037.7 -03511.6 -07.6809 26273.4
 28 10 2013  10 45  -21.0564 26037.9 -03511.6 -07.6809 26273.7
 28 10 2013  10 46  -21.0569 26038.2 -03511.6 -07.6808 26273.9
 28 10 2013  10 47  -21.0572 26038.4 -03511.6 -07.6807 26274.1
 28 10 2013  10 48  -21.0573 26038.6 -03511.5 -07.6805 26274.3
 28 10 2013  10 49  -21.0575 26038.7 -03511.5 -07.6804 26274.4
 28 10 2013  10 50  -21.0578 26038.9 -03511.5 -07.6803 26274.6
 28 10 2013  10 51  -21.0580 26039.0 -03511.5 -07.6802 26274.7
 28 10 2013  10 52  -21.0582 26039.1 -03511.4 -07.6800 26274.8
 28 10 2013  10 53  -21.0583 26039.1 -03511.3 -07.6798 26274.8
 28 10 2013  10 54  -21.0587 26039.2 -03511.2 -07.6797 26274.8
 28 10 2013  10 55  -21.0595 26039.4 -03511.3 -07.6797 26275.0
 28 10 2013  10 56  -21.0601 26039.6 -03511.3 -07.6796 26275.2
 28 10 2013  10 57  -21.0607 26039.8 -03511.2 -07.6795 26275.5
 28 10 2013  10 58  -21.0612 26040.1 -03511.2 -07.6793 26275.7
 28 10 2013  10 59  -21.0616 26040.3 -03511.2 -07.6792 26276.0
 28 10 2013  11 00  -21.0620 26040.6 -03511.1 -07.6790 26276.2
 28 10 2013  11 01  -21.0623 26040.9 -03511.1 -07.6789 26276.5
 28 10 2013  11 02  -21.0627 26041.1 -03511.1 -07.6788 26276.7
 28 10 2013  11 03  -21.0629 26041.4 -03511.1 -07.6786 26277.0
 28 10 2013  11 04  -21.0631 26041.7 -03511.0 -07.6785 26277.3
 28 10 2013  11 05  -21.0633 26042.0 -03510.9 -07.6782 26277.6
 28 10 2013  11 06  -21.0632 26042.2 -03510.8 -07.6779 26277.8
 28 10 2013  11 07  -21.0633 26042.3 -03510.7 -07.6776 26277.9
 28 10 2013  11 08  -21.0634 26042.5 -03510.6 -07.6773 26278.0
 28 10 2013  11 09  -21.0640 26042.7 -03510.5 -07.6771 26278.3
 28 10 2013  11 10  -21.0643 26043.0 -03510.5 -07.6769 26278.6
 28 10 2013  11 11  -21.0648 26043.5 -03510.4 -07.6767 26279.0
 28 10 2013  11 12  -21.0651 26043.7 -03510.3 -07.6764 26279.2
 28 10 2013  11 13  -21.0653 26043.9 -03510.2 -07.6760 26279.4
 28 10 2013  11 14  -21.0655 26044.1 -03510.0 -07.6756 26279.6
 28 10 2013  11 15  -21.0658 26044.3 -03509.9 -07.6752 26279.7
 28 10 2013  11 16  -21.0661 26044.4 -03509.7 -07.6749 26279.8
 28 10 2013  11 17  -21.0664 26044.6 -03509.7 -07.6747 26280.0
 28 10 2013  11 18  -21.0666 26044.8 -03509.6 -07.6744 26280.2
 28 10 2013  11 19  -21.0667 26045.2 -03509.5 -07.6742 26280.5
 28 10 2013  11 20  -21.0668 26045.6 -03509.5 -07.6741 26281.0
 28 10 2013  11 21  -21.0670 26046.2 -03509.5 -07.6738 26281.5
 28 10 2013  11 22  -21.0671 26046.6 -03509.3 -07.6734 26282.0
 28 10 2013  11 23  -21.0672 26047.1 -03509.2 -07.6730 26282.4
 28 10 2013  11 24  -21.0674 26047.5 -03509.0 -07.6725 26282.8
 28 10 2013  11 25  -21.0677 26047.8 -03508.8 -07.6720 26283.0
 28 10 2013  11 26  -21.0677 26047.9 -03508.6 -07.6715 26283.1
 28 10 2013  11 27  -21.0676 26048.1 -03508.5 -07.6711 26283.4
 28 10 2013  11 28  -21.0676 26048.5 -03508.3 -07.6707 26283.7
 28 10 2013  11 29  -21.0677 26048.7 -03508.2 -07.6703 26283.9
 28 10 2013  11 30  -21.0678 26048.9 -03508.0 -07.6698 26284.1
 28 10 2013  11 31  -21.0679 26049.2 -03507.8 -07.6694 26284.3
 28 10 2013  11 32  -21.0681 26049.5 -03507.7 -07.6690 26284.6
 28 10 2013  11 33  -21.0683 26049.7 -03507.6 -07.6687 26284.8
 28 10 2013  11 34  -21.0684 26050.1 -03507.5 -07.6685 26285.2
 28 10 2013  11 35  -21.0683 26050.6 -03507.5 -07.6683 26285.7
 28 10 2013  11 36  -21.0682 26051.0 -03507.4 -07.6680 26286.1
 28 10 2013  11 37  -21.0684 26051.4 -03507.3 -07.6677 26286.4
 28 10 2013  11 38  -21.0691 26051.9 -03507.3 -07.6675 26286.9
 28 10 2013  11 39  -21.0693 26052.2 -03507.2 -07.6671 26287.2
 28 10 2013  11 40  -21.0694 26052.7 -03507.0 -07.6666 26287.6
 28 10 2013  11 41  -21.0695 26053.1 -03506.8 -07.6661 26288.0
 28 10 2013  11 42  -21.0698 26053.4 -03506.6 -07.6655 26288.4
 28 10 2013  11 43  -21.0702 26053.7 -03506.4 -07.6649 26288.6
 28 10 2013  11 44  -21.0709 26054.0 -03506.2 -07.6644 26288.8
 28 10 2013  11 45  -21.0715 26054.0 -03505.8 -07.6636 26288.8
 28 10 2013  11 46  -21.0722 26053.9 -03505.6 -07.6631 26288.7
 28 10 2013  11 47  -21.0728 26054.0 -03505.3 -07.6626 26288.7
 28 10 2013  11 48  -21.0736 26053.9 -03505.1 -07.6622 26288.6
 28 10 2013  11 49  -21.0743 26054.0 -03505.0 -07.6619 26288.7
 28 10 2013  11 50  -21.0752 26054.3 -03505.0 -07.6618 26289.0
 28 10 2013  11 51  -21.0762 26054.6 -03504.9 -07.6615 26289.3
 28 10 2013  11 52  -21.0767 26054.9 -03504.8 -07.6612 26289.6
 28 10 2013  11 53  -21.0770 26055.3 -03504.6 -07.6607 26289.9
 28 10 2013  11 54  -21.0771 26055.7 -03504.4 -07.6602 26290.3
 28 10 2013  11 55  -21.0773 26056.1 -03504.3 -07.6598 26290.7
 28 10 2013  11 56  -21.0774 26056.5 -03504.1 -07.6593 26291.1
 28 10 2013  11 57  -21.0776 26056.8 -03503.9 -07.6587 26291.4
 28 10 2013  11 58  -21.0776 26057.1 -03503.7 -07.6582 26291.7
 28 10 2013  11 59  -21.0776 26057.5 -03503.5 -07.6577 26292.0
 28 10 2013  12 00  -21.0775 26057.8 -03503.4 -07.6572 26292.3
 28 10 2013  12 01  -21.0773 26058.2 -03503.1 -07.6566 26292.6
 28 10 2013  12 02  -21.0772 26058.5 -03503.0 -07.6562 26292.9
 28 10 2013  12 03  -21.0770 26058.9 -03502.8 -07.6557 26293.3
 28 10 2013  12 04  -21.0768 26059.3 -03502.6 -07.6552 26293.6
 28 10 2013  12 05  -21.0767 26059.6 -03502.4 -07.6547 26293.9
 28 10 2013  12 06  -21.0766 26060.0 -03502.3 -07.6542 26294.3
 28 10 2013  12 07  -21.0764 26060.4 -03502.1 -07.6538 26294.6
 28 10 2013  12 08  -21.0763 26060.9 -03502.0 -07.6534 26295.1
 28 10 2013  12 09  -21.0763 26061.3 -03501.8 -07.6529 26295.5
 28 10 2013  12 10  -21.0762 26061.8 -03501.7 -07.6524 26295.9
 28 10 2013  12 11  -21.0762 26062.1 -03501.5 -07.6519 26296.3
 28 10 2013  12 12  -21.0764 26062.5 -03501.3 -07.6513 26296.7
 28 10 2013  12 13  -21.0766 26062.9 -03501.1 -07.6508 26297.0
 28 10 2013  12 14  -21.0766 26063.3 -03500.9 -07.6503 26297.4
 28 10 2013  12 15  -21.0767 26063.6 -03500.7 -07.6497 26297.7
 28 10 2013  12 16  -21.0768 26063.9 -03500.4 -07.6492 26297.9
 28 10 2013  12 17  -21.0769 26064.1 -03500.2 -07.6486 26298.1
 28 10 2013  12 18  -21.0771 26064.3 -03500.0 -07.6481 26298.3
 28 10 2013  12 19  -21.0773 26064.6 -03499.8 -07.6476 26298.5
 28 10 2013  12 20  -21.0775 26064.9 -03499.6 -07.6472 26298.8
 28 10 2013  12 21  -21.0776 26065.1 -03499.4 -07.6466 26299.0
 28 10 2013  12 22  -21.0778 26065.3 -03499.3 -07.6462 26299.2
 28 10 2013  12 23  -21.0780 26065.6 -03499.1 -07.6458 26299.4
 28 10 2013  12 24  -21.0782 26065.8 -03499.0 -07.6454 26299.6
 28 10 2013  12 25  -21.0783 26066.2 -03498.8 -07.6450 26299.9
 28 10 2013  12 26  -21.0785 26066.4 -03498.7 -07.6446 26300.2
 28 10 2013  12 27  -21.0785 26066.7 -03498.5 -07.6442 26300.5
 28 10 2013  12 28  -21.0785 26067.0 -03498.4 -07.6438 26300.7
 28 10 2013  12 29  -21.0786 26067.3 -03498.2 -07.6434 26300.9
 28 10 2013  12 30  -21.0787 26067.5 -03498.1 -07.6431 26301.2
 28 10 2013  12 31  -21.0786 26067.9 -03497.9 -07.6426 26301.5
 28 10 2013  12 32  -21.0788 26068.2 -03497.8 -07.6423 26301.8
 28 10 2013  12 33  -21.0789 26068.4 -03497.7 -07.6419 26302.0
 28 10 2013  12 34  -21.0791 26068.6 -03497.5 -07.6414 26302.2
 28 10 2013  12 35  -21.0792 26068.8 -03497.3 -07.6410 26302.3
 28 10 2013  12 36  -21.0792 26069.1 -03497.2 -07.6406 26302.6
 28 10 2013  12 37  -21.0794 26069.2 -03497.0 -07.6403 26302.7
 28 10 2013  12 38  -21.0796 26069.5 -03496.9 -07.6399 26303.0
 28 10 2013  12 39  -21.0799 26069.8 -03496.8 -07.6396 26303.3
 28 10 2013  12 40  -21.0799 26070.2 -03496.7 -07.6392 26303.6
 28 10 2013  12 41  -21.0799 26070.5 -03496.6 -07.6389 26304.0
 28 10 2013  12 42  -21.0799 26070.9 -03496.4 -07.6385 26304.3
 28 10 2013  12 43  -21.0800 26071.3 -03496.3 -07.6381 26304.7
 28 10 2013  12 44  -21.0800 26071.7 -03496.2 -07.6378 26305.0
 28 10 2013  12 45  -21.0801 26072.0 -03496.0 -07.6373 26305.3
 28 10 2013  12 46  -21.0800 26072.3 -03495.9 -07.6369 26305.6
 28 10 2013  12 47  -21.0801 26072.6 -03495.7 -07.6365 26305.9
 28 10 2013  12 48  -21.0801 26072.8 -03495.6 -07.6360 26306.1
 28 10 2013  12 49  -21.0801 26073.0 -03495.4 -07.6356 26306.2
 28 10 2013  12 50  -21.0801 26073.2 -03495.2 -07.6352 26306.4
 28 10 2013  12 51  -21.0800 26073.4 -03495.1 -07.6349 26306.6
 28 10 2013  12 52  -21.0799 26073.6 -03494.9 -07.6345 26306.8
 28 10 2013  12 53  -21.0799 26073.7 -03494.8 -07.6341 26306.9
 28 10 2013  12 54  -21.0798 26073.9 -03494.7 -07.6338 26307.0
 28 10 2013  12 55  -21.0796 26074.1 -03494.6 -07.6336 26307.3
 28 10 2013  12 56  -21.0795 26074.3 -03494.5 -07.6333 26307.5
 28 10 2013  12 57  -21.0793 26074.6 -03494.4 -07.6330 26307.7
 28 10 2013  12 58  -21.0792 26074.9 -03494.3 -07.6327 26308.0
 28 10 2013  12 59  -21.0792 26075.2 -03494.2 -07.6324 26308.3
 28 10 2013  13 00  -21.0791 26075.4 -03494.1 -07.6321 26308.5
 28 10 2013  13 01  -21.0790 26075.7 -03494.0 -07.6318 26308.7
 28 10 2013  13 02  -21.0787 26075.8 -03493.8 -07.6314 26308.8
 28 10 2013  13 03  -21.0784 26075.9 -03493.7 -07.6310 26308.9
 28 10 2013  13 04  -21.0783 26076.2 -03493.6 -07.6308 26309.1
 28 10 2013  13 05  -21.0782 26076.4 -03493.5 -07.6305 26309.4
 28 10 2013  13 06  -21.0781 26076.5 -03493.3 -07.6301 26309.4
 28 10 2013  13 07  -21.0780 26076.5 -03493.1 -07.6297 26309.5
 28 10 2013  13 08  -21.0780 26076.7 -03493.0 -07.6294 26309.6
 28 10 2013  13 09  -21.0781 26076.9 -03492.9 -07.6291 26309.8
 28 10 2013  13 10  -21.0780 26077.0 -03492.7 -07.6287 26309.9
 28 10 2013  13 11  -21.0779 26077.2 -03492.6 -07.6283 26310.0
 28 10 2013  13 12  -21.0778 26077.3 -03492.4 -07.6280 26310.2
 28 10 2013  13 13  -21.0777 26077.5 -03492.3 -07.6276 26310.3
 28 10 2013  13 14  -21.0776 26077.7 -03492.1 -07.6273 26310.5
 28 10 2013  13 15  -21.0774 26077.9 -03492.0 -07.6270 26310.7
 28 10 2013  13 16  -21.0772 26078.1 -03491.9 -07.6266 26310.9
 28 10 2013  13 17  -21.0770 26078.3 -03491.7 -07.6262 26311.0
 28 10 2013  13 18  -21.0767 26078.3 -03491.6 -07.6258 26311.0
 28 10 2013  13 19  -21.0765 26078.4 -03491.4 -07.6255 26311.1
 28 10 2013  13 20  -21.0762 26078.5 -03491.3 -07.6251 26311.1
 28 10 2013  13 21  -21.0761 26078.6 -03491.1 -07.6248 26311.3
 28 10 2013  13 22  -21.0761 26078.7 -03491.0 -07.6244 26311.3
 28 10 2013  13 23  -21.0759 26078.6 -03490.7 -07.6240 26311.2
 28 10 2013  13 24  -21.0756 26078.5 -03490.5 -07.6235 26311.0
 28 10 2013  13 25  -21.0754 26078.3 -03490.3 -07.6231 26310.9
 28 10 2013  13 26  -21.0751 26078.2 -03490.1 -07.6228 26310.7
 28 10 2013  13 27  -21.0750 26078.2 -03490.1 -07.6226 26310.7
 28 10 2013  13 28  -21.0751 26078.4 -03490.0 -07.6225 26310.9
 28 10 2013  13 29  -21.0751 26078.2 -03489.8 -07.6221 26310.7
 28 10 2013  13 30  -21.0750 26078.1 -03489.7 -07.6218 26310.6
 28 10 2013  13 31  -21.0749 26078.1 -03489.6 -07.6216 26310.6
 28 10 2013  13 32  -21.0748 26078.2 -03489.5 -07.6214 26310.6
 28 10 2013  13 33  -21.0749 26078.3 -03489.5 -07.6213 26310.8
 28 10 2013  13 34  -21.0748 26078.6 -03489.4 -07.6212 26311.0
 28 10 2013  13 35  -21.0747 26078.8 -03489.3 -07.6209 26311.2
 28 10 2013  13 36  -21.0747 26079.0 -03489.2 -07.6205 26311.4
 28 10 2013  13 37  -21.0745 26078.8 -03489.0 -07.6200 26311.2
 28 10 2013  13 38  -21.0742 26078.8 -03488.8 -07.6197 26311.1
 28 10 2013  13 39  -21.0741 26078.9 -03488.7 -07.6195 26311.2
 28 10 2013  13 40  -21.0741 26078.9 -03488.6 -07.6192 26311.2
 28 10 2013  13 41  -21.0740 26079.0 -03488.4 -07.6189 26311.3
 28 10 2013  13 42  -21.0740 26079.1 -03488.3 -07.6186 26311.4
 28 10 2013  13 43  -21.0738 26079.3 -03488.2 -07.6184 26311.5
 28 10 2013  13 44  -21.0738 26079.4 -03488.1 -07.6181 26311.6
 28 10 2013  13 45  -21.0736 26079.6 -03488.0 -07.6177 26311.8
 28 10 2013  13 46  -21.0735 26079.7 -03487.8 -07.6174 26311.9
 28 10 2013  13 47  -21.0731 26079.6 -03487.6 -07.6168 26311.8
 28 10 2013  13 48  -21.0728 26079.6 -03487.4 -07.6164 26311.8
 28 10 2013  13 49  -21.0726 26079.7 -03487.2 -07.6161 26311.8
 28 10 2013  13 50  -21.0723 26079.7 -03487.0 -07.6157 26311.8
 28 10 2013  13 51  -21.0722 26079.7 -03486.9 -07.6153 26311.8
 28 10 2013  13 52  -21.0718 26079.8 -03486.7 -07.6148 26311.8
 28 10 2013  13 53  -21.0714 26079.8 -03486.5 -07.6144 26311.8
 28 10 2013  13 54  -21.0710 26079.8 -03486.3 -07.6140 26311.7
 28 10 2013  13 55  -21.0707 26079.7 -03486.1 -07.6136 26311.7
 28 10 2013  13 56  -21.0703 26079.7 -03485.9 -07.6131 26311.7
 28 10 2013  13 57  -21.0699 26079.8 -03485.7 -07.6128 26311.7
 28 10 2013  13 58  -21.0695 26079.8 -03485.5 -07.6123 26311.7
 28 10 2013  13 59  -21.0690 26079.9 -03485.3 -07.6119 26311.8
 28 10 2013  14 00  -21.0687 26080.0 -03485.1 -07.6115 26311.8
 28 10 2013  14 01  -21.0682 26079.9 -03484.9 -07.6109 26311.7
 28 10 2013  14 02  -21.0677 26079.7 -03484.6 -07.6105 26311.5
 28 10 2013  14 03  -21.0675 26079.7 -03484.5 -07.6101 26311.5
 28 10 2013  14 04  -21.0690 26080.1 -03484.5 -07.6100 26311.8
 28 10 2013  14 05  -21.0734 26082.2 -03485.1 -07.6107 26314.0
 28 10 2013  14 06  -21.0758 26083.8 -03484.9 -07.6099 26315.5
 28 10 2013  14 07  -21.0773 26084.4 -03484.3 -07.6084 26316.1
 28 10 2013  14 08  -21.0779 26084.6 -03483.7 -07.6069 26316.2
 28 10 2013  14 09  -21.0779 26084.5 -03483.0 -07.6055 26316.0
 28 10 2013  14 10  -21.0777 26084.3 -03482.3 -07.6041 26315.8
 28 10 2013  14 11  -21.0773 26084.1 -03481.7 -07.6029 26315.4
 28 10 2013  14 12  -21.0769 26083.9 -03481.2 -07.6019 26315.2
 28 10 2013  14 13  -21.0760 26083.5 -03480.6 -07.6008 26314.7
 28 10 2013  14 14  -21.0748 26082.9 -03480.1 -07.5997 26314.0
 28 10 2013  14 15  -21.0734 26082.3 -03479.6 -07.5988 26313.3
 28 10 2013  14 16  -21.0717 26081.6 -03479.2 -07.5981 26312.6
 28 10 2013  14 17  -21.0701 26080.9 -03478.8 -07.5976 26311.9
 28 10 2013  14 18  -21.0685 26080.2 -03478.6 -07.5973 26311.2
 28 10 2013  14 19  -21.0671 26079.7 -03478.5 -07.5972 26310.7
 28 10 2013  14 20  -21.0659 26079.5 -03478.5 -07.5973 26310.4
 28 10 2013  14 21  -21.0649 26079.3 -03478.5 -07.5974 26310.3
 28 10 2013  14 22  -21.0640 26079.2 -03478.5 -07.5974 26310.1
 28 10 2013  14 23  -21.0629 26078.9 -03478.4 -07.5973 26309.9
 28 10 2013  14 24  -21.0619 26078.7 -03478.3 -07.5971 26309.6
 28 10 2013  14 25  -21.0611 26078.6 -03478.3 -07.5971 26309.6
 28 10 2013  14 26  -21.0605 26078.5 -03478.2 -07.5970 26309.4
 28 10 2013  14 27  -21.0601 26078.5 -03478.2 -07.5969 26309.4
 28 10 2013  14 28  -21.0597 26078.4 -03478.0 -07.5966 26309.3
 28 10 2013  14 29  -21.0591 26078.4 -03477.9 -07.5964 26309.3
 28 10 2013  14 30  -21.0586 26078.4 -03477.8 -07.5962 26309.3
 28 10 2013  14 31  -21.0580 26078.4 -03477.7 -07.5959 26309.2
 28 10 2013  14 32  -21.0574 26078.3 -03477.6 -07.5956 26309.1
 28 10 2013  14 33  -21.0568 26078.1 -03477.4 -07.5953 26308.9
 28 10 2013  14 34  -21.0560 26077.8 -03477.2 -07.5949 26308.6
 28 10 2013  14 35  -21.0552 26077.6 -03477.0 -07.5947 26308.4
 28 10 2013  14 36  -21.0545 26077.6 -03477.0 -07.5947 26308.4
 28 10 2013  14 37  -21.0541 26077.8 -03477.1 -07.5948 26308.6
 28 10 2013  14 38  -21.0536 26077.8 -03477.1 -07.5948 26308.6
 28 10 2013  14 39  -21.0527 26077.5 -03476.9 -07.5944 26308.3
 28 10 2013  14 40  -21.0516 26077.2 -03476.8 -07.5942 26307.9
 28 10 2013  14 41  -21.0512 26077.4 -03477.0 -07.5946 26308.2
 28 10 2013  14 42  -21.0509 26077.5 -03477.1 -07.5947 26308.3
 28 10 2013  14 43  -21.0506 26077.6 -03477.0 -07.5946 26308.4
 28 10 2013  14 44  -21.0503 26077.7 -03477.0 -07.5946 26308.5
 28 10 2013  14 45  -21.0499 26077.6 -03476.9 -07.5943 26308.4
 28 10 2013  14 46  -21.0495 26077.5 -03476.8 -07.5941 26308.2
 28 10 2013  14 47  -21.0493 26077.5 -03476.7 -07.5940 26308.2
 28 10 2013  14 48  -21.0490 26077.3 -03476.5 -07.5936 26308.0
 28 10 2013  14 49  -21.0488 26077.1 -03476.3 -07.5932 26307.8
 28 10 2013  14 50  -21.0488 26077.1 -03476.2 -07.5930 26307.7
 28 10 2013  14 51  -21.0486 26077.0 -03476.0 -07.5927 26307.6
 28 10 2013  14 52  -21.0483 26076.9 -03475.9 -07.5924 26307.5
 28 10 2013  14 53  -21.0482 26076.9 -03475.7 -07.5921 26307.5
 28 10 2013  14 54  -21.0480 26077.0 -03475.6 -07.5918 26307.6
 28 10 2013  14 55  -21.0477 26076.9 -03475.5 -07.5915 26307.5
 28 10 2013  14 56  -21.0473 26077.0 -03475.4 -07.5914 26307.5
 28 10 2013  14 57  -21.0472 26077.1 -03475.4 -07.5912 26307.7
 28 10 2013  14 58  -21.0472 26077.2 -03475.3 -07.5911 26307.8
 28 10 2013  14 59  -21.0474 26077.4 -03475.2 -07.5908 26307.9
 28 10 2013  15 00  -21.0489 26078.0 -03475.2 -07.5906 26308.6
 28 10 2013  15 01  -21.0521 26079.1 -03475.2 -07.5903 26309.7
 28 10 2013  15 02  -21.0554 26080.6 -03475.1 -07.5896 26311.1
 28 10 2013  15 03  -21.0573 26081.4 -03474.6 -07.5883 26311.8
 28 10 2013  15 04  -21.0577 26081.5 -03473.8 -07.5866 26311.9
 28 10 2013  15 05  -21.0556 26081.1 -03473.1 -07.5852 26311.3
 28 10 2013  15 06  -21.0530 26080.2 -03472.5 -07.5842 26310.4
 28 10 2013  15 07  -21.0513 26079.7 -03472.3 -07.5838 26309.8
 28 10 2013  15 08  -21.0506 26079.6 -03472.3 -07.5839 26309.8
 28 10 2013  15 09  -21.0507 26079.6 -03472.4 -07.5840 26309.8
 28 10 2013  15 10  -21.0506 26079.5 -03472.2 -07.5836 26309.6
 28 10 2013  15 11  -21.0517 26079.7 -03472.1 -07.5834 26309.8
 28 10 2013  15 12  -21.0549 26080.7 -03472.3 -07.5836 26310.8
 28 10 2013  15 13  -21.0581 26081.5 -03472.2 -07.5830 26311.6
 28 10 2013  15 14  -21.0584 26081.3 -03471.3 -07.5812 26311.3
 28 10 2013  15 15  -21.0586 26081.0 -03470.5 -07.5795 26310.9
 28 10 2013  15 16  -21.0591 26080.6 -03469.7 -07.5780 26310.4
 28 10 2013  15 17  -21.0593 26080.3 -03469.2 -07.5770 26310.1
 28 10 2013  15 18  -21.0600 26081.1 -03469.3 -07.5770 26310.8
 28 10 2013  15 19  -21.0607 26081.9 -03469.3 -07.5767 26311.7
 28 10 2013  15 20  -21.0610 26082.7 -03469.1 -07.5761 26312.4
 28 10 2013  15 21  -21.0603 26082.7 -03468.5 -07.5748 26312.3
 28 10 2013  15 22  -21.0581 26082.1 -03467.8 -07.5733 26311.7
 28 10 2013  15 23  -21.0558 26081.4 -03467.2 -07.5724 26310.9
 28 10 2013  15 24  -21.0536 26080.6 -03466.9 -07.5719 26310.0
 28 10 2013  15 25  -21.0516 26079.8 -03466.6 -07.5716 26309.2
 28 10 2013  15 26  -21.0496 26079.2 -03466.6 -07.5716 26308.6
 28 10 2013  15 27  -21.0477 26078.9 -03466.6 -07.5718 26308.3
 28 10 2013  15 28  -21.0460 26078.5 -03466.6 -07.5719 26307.9
 28 10 2013  15 29  -21.0447 26078.2 -03466.7 -07.5721 26307.6
 28 10 2013  15 30  -21.0436 26077.8 -03466.6 -07.5721 26307.2
 28 10 2013  15 31  -21.0426 26077.4 -03466.6 -07.5721 26306.8
 28 10 2013  15 32  -21.0417 26077.2 -03466.6 -07.5722 26306.6
 28 10 2013  15 33  -21.0410 26077.1 -03466.5 -07.5722 26306.5
 28 10 2013  15 34  -21.0401 26077.0 -03466.5 -07.5721 26306.4
 28 10 2013  15 35  -21.0389 26076.9 -03466.4 -07.5720 26306.3
 28 10 2013  15 36  -21.0379 26076.8 -03466.3 -07.5718 26306.2
 28 10 2013  15 37  -21.0368 26076.5 -03466.2 -07.5717 26305.9
 28 10 2013  15 38  -21.0355 26076.2 -03466.1 -07.5714 26305.6
 28 10 2013  15 39  -21.0342 26075.8 -03465.9 -07.5712 26305.1
 28 10 2013  15 40  -21.0329 26075.3 -03465.8 -07.5712 26304.6
 28 10 2013  15 41  -21.0315 26075.0 -03465.8 -07.5712 26304.3
 28 10 2013  15 42  -21.0302 26074.8 -03465.9 -07.5715 26304.1
 28 10 2013  15 43  -21.0293 26074.8 -03466.1 -07.5719 26304.2
 28 10 2013  15 44  -21.0289 26075.0 -03466.4 -07.5724 26304.4
 28 10 2013  15 45  -21.0281 26074.9 -03466.4 -07.5724 26304.3
 28 10 2013  15 46  -21.0272 26074.8 -03466.4 -07.5724 26304.2
 28 10 2013  15 47  -21.0263 26074.6 -03466.4 -07.5725 26304.0
 28 10 2013  15 48  -21.0255 26074.4 -03466.4 -07.5726 26303.8
 28 10 2013  15 49  -21.0248 26074.2 -03466.5 -07.5728 26303.6
 28 10 2013  15 50  -21.0241 26074.0 -03466.5 -07.5729 26303.5
 28 10 2013  15 51  -21.0235 26073.9 -03466.4 -07.5728 26303.3
 28 10 2013  15 52  -21.0231 26073.7 -03466.5 -07.5730 26303.1
 28 10 2013  15 53  -21.0227 26073.5 -03466.4 -07.5729 26302.9
 28 10 2013  15 54  -21.0222 26073.2 -03466.4 -07.5729 26302.6
 28 10 2013  15 55  -21.0218 26072.9 -03466.3 -07.5729 26302.4
 28 10 2013  15 56  -21.0211 26072.6 -03466.2 -07.5728 26302.0
 28 10 2013  15 57  -21.0206 26072.5 -03466.3 -07.5730 26301.9
 28 10 2013  15 58  -21.0203 26072.6 -03466.4 -07.5732 26302.0
 28 10 2013  15 59  -21.0198 26072.3 -03466.3 -07.5730 26301.7
 28 10 2013  16 00  -21.0190 26072.1 -03466.2 -07.5730 26301.5
 28 10 2013  16 01  -21.0183 26071.8 -03466.3 -07.5731 26301.2
 28 10 2013  16 02  -21.0176 26071.6 -03466.3 -07.5731 26301.0
 28 10 2013  16 03  -21.0170 26071.4 -03466.3 -07.5732 26300.8
 28 10 2013  16 04  -21.0165 26071.2 -03466.3 -07.5733 26300.6
 28 10 2013  16 05  -21.0159 26070.9 -03466.3 -07.5734 26300.3
 28 10 2013  16 06  -21.0151 26070.6 -03466.3 -07.5735 26300.0
 28 10 2013  16 07  -21.0146 26070.4 -03466.3 -07.5736 26299.8
 28 10 2013  16 08  -21.0141 26070.2 -03466.4 -07.5739 26299.6
 28 10 2013  16 09  -21.0138 26070.0 -03466.6 -07.5742 26299.5
 28 10 2013  16 10  -21.0135 26069.9 -03466.6 -07.5744 26299.4
 28 10 2013  16 11  -21.0131 26069.7 -03466.6 -07.5745 26299.1
 28 10 2013  16 12  -21.0128 26069.4 -03466.7 -07.5746 26298.9
 28 10 2013  16 13  -21.0125 26069.2 -03466.7 -07.5749 26298.7
 28 10 2013  16 14  -21.0122 26069.0 -03466.8 -07.5751 26298.5
 28 10 2013  16 15  -21.0119 26068.9 -03466.9 -07.5753 26298.4
 28 10 2013  16 16  -21.0119 26068.8 -03467.0 -07.5756 26298.4
 28 10 2013  16 17  -21.0119 26068.9 -03467.1 -07.5758 26298.4
 28 10 2013  16 18  -21.0119 26068.8 -03467.1 -07.5757 26298.3
 28 10 2013  16 19  -21.0115 26068.4 -03466.9 -07.5755 26298.0
 28 10 2013  16 20  -21.0110 26068.1 -03466.8 -07.5754 26297.6
 28 10 2013  16 21  -21.0105 26067.8 -03466.8 -07.5754 26297.3
 28 10 2013  16 22  -21.0102 26067.5 -03466.8 -07.5756 26297.1
 28 10 2013  16 23  -21.0099 26067.4 -03466.9 -07.5757 26297.0
 28 10 2013  16 24  -21.0097 26067.4 -03466.9 -07.5758 26297.0
 28 10 2013  16 25  -21.0094 26067.5 -03467.0 -07.5759 26297.0
 28 10 2013  16 26  -21.0091 26067.4 -03467.0 -07.5759 26297.0
 28 10 2013  16 27  -21.0086 26067.3 -03466.9 -07.5758 26296.8
 28 10 2013  16 28  -21.0078 26067.0 -03466.8 -07.5756 26296.5
 28 10 2013  16 29  -21.0070 26066.8 -03466.8 -07.5757 26296.4
 28 10 2013  16 30  -21.0064 26066.8 -03466.9 -07.5759 26296.3
 28 10 2013  16 31  -21.0059 26066.7 -03467.0 -07.5762 26296.2
 28 10 2013  16 32  -21.0051 26066.6 -03467.1 -07.5764 26296.2
 28 10 2013  16 33  -21.0044 26066.5 -03467.2 -07.5766 26296.1
 28 10 2013  16 34  -21.0037 26066.3 -03467.3 -07.5768 26295.9
 28 10 2013  16 35  -21.0031 26066.1 -03467.3 -07.5771 26295.7
 28 10 2013  16 36  -21.0025 26065.7 -03467.4 -07.5773 26295.3
 28 10 2013  16 37  -21.0017 26065.1 -03467.3 -07.5773 26294.7
 28 10 2013  16 38  -21.0010 26064.5 -03467.4 -07.5777 26294.2
 28 10 2013  16 39  -21.0002 26064.0 -03467.5 -07.5781 26293.6
 28 10 2013  16 40  -20.9993 26063.4 -03467.7 -07.5786 26293.1
 28 10 2013  16 41  -20.9988 26063.5 -03468.2 -07.5797 26293.2
 28 10 2013  16 42  -20.9990 26063.8 -03468.9 -07.5810 26293.6
 28 10 2013  16 43  -20.9992 26064.2 -03469.3 -07.5819 26294.0
 28 10 2013  16 44  -20.9991 26064.2 -03469.5 -07.5823 26294.2
 28 10 2013  16 45  -20.9988 26064.2 -03469.6 -07.5826 26294.1
 28 10 2013  16 46  -20.9982 26063.9 -03469.7 -07.5829 26293.8
 28 10 2013  16 47  -20.9977 26063.7 -03469.9 -07.5833 26293.6
 28 10 2013  16 48  -20.9975 26063.4 -03470.1 -07.5838 26293.4
 28 10 2013  16 49  -20.9973 26063.3 -03470.4 -07.5844 26293.3
 28 10 2013  16 50  -20.9972 26063.1 -03470.6 -07.5850 26293.2
 28 10 2013  16 51  -20.9972 26063.0 -03470.9 -07.5856 26293.1
 28 10 2013  16 52  -20.9972 26063.0 -03471.1 -07.5862 26293.1
 28 10 2013  16 53  -20.9973 26062.9 -03471.3 -07.5866 26293.0
 28 10 2013  16 54  -20.9974 26062.7 -03471.6 -07.5871 26292.9
 28 10 2013  16 55  -20.9975 26062.6 -03471.7 -07.5876 26292.8
 28 10 2013  16 56  -20.9977 26062.4 -03471.9 -07.5880 26292.6
 28 10 2013  16 57  -20.9978 26062.2 -03472.1 -07.5884 26292.5
 28 10 2013  16 58  -20.9979 26062.0 -03472.3 -07.5889 26292.3
 28 10 2013  16 59  -20.9981 26061.8 -03472.5 -07.5894 26292.1
 28 10 2013  17 00  -20.9984 26061.7 -03472.7 -07.5899 26292.0
 28 10 2013  17 01  -20.9986 26061.6 -03472.9 -07.5903 26292.0
 28 10 2013  17 02  -20.9987 26061.5 -03473.0 -07.5907 26291.9
 28 10 2013  17 03  -20.9989 26061.3 -03473.2 -07.5912 26291.8
 28 10 2013  17 04  -20.9990 26061.2 -03473.4 -07.5916 26291.7
 28 10 2013  17 05  -20.9991 26061.1 -03473.6 -07.5919 26291.6
 28 10 2013  17 06  -20.9994 26061.0 -03473.8 -07.5924 26291.5
 28 10 2013  17 07  -20.9996 26061.0 -03473.9 -07.5928 26291.5
 28 10 2013  17 08  -20.9997 26060.9 -03474.1 -07.5931 26291.4
 28 10 2013  17 09  -20.9999 26060.8 -03474.2 -07.5935 26291.4
 28 10 2013  17 10  -21.0002 26060.7 -03474.4 -07.5938 26291.3
 28 10 2013  17 11  -21.0005 26060.6 -03474.5 -07.5941 26291.2
 28 10 2013  17 12  -21.0005 26060.4 -03474.6 -07.5943 26291.0
 28 10 2013  17 13  -21.0006 26060.2 -03474.7 -07.5947 26290.8
 28 10 2013  17 14  -21.0008 26060.1 -03474.9 -07.5952 26290.7
 28 10 2013  17 15  -21.0010 26059.9 -03475.1 -07.5957 26290.6
 28 10 2013  17 16  -21.0012 26059.9 -03475.4 -07.5962 26290.6
 28 10 2013  17 17  -21.0015 26059.8 -03475.6 -07.5967 26290.6
 28 10 2013  17 18  -21.0017 26059.8 -03475.8 -07.5970 26290.6
 28 10 2013  17 19  -21.0020 26059.7 -03475.9 -07.5974 26290.5
 28 10 2013  17 20  -21.0023 26059.6 -03476.1 -07.5978 26290.4
 28 10 2013  17 21  -21.0024 26059.4 -03476.2 -07.5980 26290.3
 28 10 2013  17 22  -21.0028 26059.3 -03476.4 -07.5985 26290.2
 28 10 2013  17 23  -21.0032 26059.2 -03476.5 -07.5988 26290.1
 28 10 2013  17 24  -21.0036 26059.1 -03476.6 -07.5991 26290.0
 28 10 2013  17 25  -21.0040 26058.9 -03476.8 -07.5995 26289.8
 28 10 2013  17 26  -21.0044 26058.8 -03476.9 -07.5997 26289.7
 28 10 2013  17 27  -21.0050 26058.7 -03477.0 -07.6001 26289.6
 28 10 2013  17 28  -21.0055 26058.6 -03477.2 -07.6004 26289.6
 28 10 2013  17 29  -21.0060 26058.5 -03477.3 -07.6008 26289.5
 28 10 2013  17 30  -21.0067 26058.5 -03477.5 -07.6011 26289.5
 28 10 2013  17 31  -21.0073 26058.5 -03477.6 -07.6014 26289.5
 28 10 2013  17 32  -21.0080 26058.4 -03477.7 -07.6016 26289.5
 28 10 2013  17 33  -21.0086 26058.4 -03477.9 -07.6020 26289.4
 28 10 2013  17 34  -21.0092 26058.3 -03478.0 -07.6023 26289.4
 28 10 2013  17 35  -21.0099 26058.2 -03478.1 -07.6026 26289.3
 28 10 2013  17 36  -21.0106 26058.2 -03478.2 -07.6029 26289.3
 28 10 2013  17 37  -21.0112 26058.1 -03478.3 -07.6031 26289.2
 28 10 2013  17 38  -21.0119 26058.0 -03478.4 -07.6034 26289.1
 28 10 2013  17 39  -21.0125 26058.0 -03478.6 -07.6037 26289.1
 28 10 2013  17 40  -21.0133 26058.0 -03478.8 -07.6041 26289.2
 28 10 2013  17 41  -21.0139 26058.0 -03478.9 -07.6044 26289.3
 28 10 2013  17 42  -21.0145 26058.1 -03479.1 -07.6048 26289.3
 28 10 2013  17 43  -21.0152 26058.1 -03479.3 -07.6051 26289.4
 28 10 2013  17 44  -21.0157 26058.1 -03479.3 -07.6053 26289.4
 28 10 2013  17 45  -21.0164 26058.1 -03479.5 -07.6056 26289.4
 28 10 2013  17 46  -21.0170 26058.0 -03479.6 -07.6058 26289.3
 28 10 2013  17 47  -21.0176 26057.9 -03479.7 -07.6060 26289.2
 28 10 2013  17 48  -21.0182 26057.7 -03479.7 -07.6062 26289.0
 28 10 2013  17 49  -21.0187 26057.6 -03479.8 -07.6064 26288.9
 28 10 2013  17 50  -21.0193 26057.5 -03479.9 -07.6067 26288.9
 28 10 2013  17 51  -21.0198 26057.6 -03480.1 -07.6070 26288.9
 28 10 2013  17 52  -21.0205 26057.6 -03480.2 -07.6074 26289.0
 28 10 2013  17 53  -21.0212 26057.6 -03480.4 -07.6078 26289.0
 28 10 2013  17 54  -21.0219 26057.6 -03480.6 -07.6081 26289.0
 28 10 2013  17 55  -21.0225 26057.5 -03480.7 -07.6083 26289.0
 28 10 2013  17 56  -21.0231 26057.5 -03480.8 -07.6086 26289.0
 28 10 2013  17 57  -21.0236 26057.5 -03481.0 -07.6090 26289.0
 28 10 2013  17 58  -21.0242 26057.5 -03481.1 -07.6093 26289.0
 28 10 2013  17 59  -21.0248 26057.6 -03481.3 -07.6097 26289.1
 28 10 2013  18 00  -21.0253 26057.7 -03481.5 -07.6100 26289.3
 28 10 2013  18 01  -21.0258 26057.8 -03481.6 -07.6103 26289.4
 28 10 2013  18 02  -21.0264 26058.0 -03481.8 -07.6106 26289.6
 28 10 2013  18 03  -21.0270 26058.2 -03482.0 -07.6110 26289.8
 28 10 2013  18 04  -21.0277 26058.4 -03482.1 -07.6111 26290.0
 28 10 2013  18 05  -21.0283 26058.4 -03482.1 -07.6112 26290.0
 28 10 2013  18 06  -21.0288 26058.3 -03482.1 -07.6111 26289.9
 28 10 2013  18 07  -21.0292 26058.1 -03482.0 -07.6111 26289.7
 28 10 2013  18 08  -21.0298 26058.0 -03482.1 -07.6113 26289.6
 28 10 2013  18 09  -21.0304 26058.0 -03482.2 -07.6115 26289.7
 28 10 2013  18 10  -21.0309 26058.0 -03482.3 -07.6116 26289.7
 28 10 2013  18 11  -21.0313 26058.0 -03482.3 -07.6117 26289.7
 28 10 2013  18 12  -21.0319 26058.0 -03482.4 -07.6119 26289.7
 28 10 2013  18 13  -21.0324 26057.9 -03482.4 -07.6120 26289.6
 28 10 2013  18 14  -21.0329 26057.8 -03482.4 -07.6120 26289.4
 28 10 2013  18 15  -21.0334 26057.6 -03482.4 -07.6120 26289.2
 28 10 2013  18 16  -21.0339 26057.3 -03482.3 -07.6120 26289.0
 28 10 2013  18 17  -21.0341 26057.0 -03482.4 -07.6121 26288.7
 28 10 2013  18 18  -21.0344 26056.9 -03482.5 -07.6124 26288.6
 28 10 2013  18 19  -21.0348 26057.0 -03482.7 -07.6129 26288.8
 28 10 2013  18 20  -21.0353 26057.2 -03482.9 -07.6133 26288.9
 28 10 2013  18 21  -21.0357 26057.3 -03483.1 -07.6136 26289.1
 28 10 2013  18 22  -21.0360 26057.4 -03483.2 -07.6138 26289.2
 28 10 2013  18 23  -21.0363 26057.4 -03483.3 -07.6140 26289.2
 28 10 2013  18 24  -21.0364 26057.5 -03483.4 -07.6142 26289.3
 28 10 2013  18 25  -21.0366 26057.6 -03483.6 -07.6146 26289.4
 28 10 2013  18 26  -21.0372 26057.8 -03483.9 -07.6151 26289.7
 28 10 2013  18 27  -21.0378 26057.9 -03484.0 -07.6153 26289.8
 28 10 2013  18 28  -21.0381 26057.9 -03484.0 -07.6153 26289.7
 28 10 2013  18 29  -21.0383 26057.8 -03484.0 -07.6153 26289.6
 28 10 2013  18 30  -21.0386 26057.7 -03484.0 -07.6154 26289.6
 28 10 2013  18 31  -21.0392 26057.8 -03484.1 -07.6157 26289.7
 28 10 2013  18 32  -21.0397 26057.8 -03484.1 -07.6157 26289.7
 28 10 2013  18 33  -21.0399 26057.5 -03484.1 -07.6156 26289.4
 28 10 2013  18 34  -21.0402 26057.3 -03484.0 -07.6156 26289.2
 28 10 2013  18 35  -21.0405 26057.1 -03484.0 -07.6156 26289.0
 28 10 2013  18 36  -21.0408 26057.0 -03484.0 -07.6156 26288.9
 28 10 2013  18 37  -21.0412 26056.9 -03484.0 -07.6157 26288.7
 28 10 2013  18 38  -21.0415 26056.7 -03484.0 -07.6157 26288.6
 28 10 2013  18 39  -21.0418 26056.7 -03484.0 -07.6158 26288.6
 28 10 2013  18 40  -21.0423 26056.8 -03484.1 -07.6160 26288.7
 28 10 2013  18 41  -21.0427 26056.9 -03484.2 -07.6160 26288.8
 28 10 2013  18 42  -21.0431 26056.9 -03484.1 -07.6160 26288.8
 28 10 2013  18 43  -21.0436 26056.9 -03484.1 -07.6159 26288.8
 28 10 2013  18 44  -21.0439 26056.7 -03484.0 -07.6157 26288.6
 28 10 2013  18 45  -21.0444 26056.5 -03483.9 -07.6156 26288.4
 28 10 2013  18 46  -21.0448 26056.4 -03483.8 -07.6154 26288.2
 28 10 2013  18 47  -21.0450 26056.1 -03483.7 -07.6153 26288.0
 28 10 2013  18 48  -21.0455 26055.9 -03483.6 -07.6152 26287.8
 28 10 2013  18 49  -21.0458 26055.8 -03483.6 -07.6151 26287.6
 28 10 2013  18 50  -21.0462 26055.8 -03483.7 -07.6153 26287.6
 28 10 2013  18 51  -21.0467 26055.8 -03483.8 -07.6155 26287.7
 28 10 2013  18 52  -21.0471 26055.8 -03483.8 -07.6155 26287.7
 28 10 2013  18 53  -21.0475 26055.9 -03483.8 -07.6156 26287.7
 28 10 2013  18 54  -21.0482 26055.8 -03483.8 -07.6155 26287.7
 28 10 2013  18 55  -21.0488 26055.5 -03483.6 -07.6153 26287.4
 28 10 2013  18 56  -21.0491 26055.0 -03483.4 -07.6149 26286.8
 28 10 2013  18 57  -21.0494 26054.5 -03483.2 -07.6146 26286.3
 28 10 2013  18 58  -21.0497 26054.3 -03483.1 -07.6146 26286.1
 28 10 2013  18 59  -21.0501 26054.2 -03483.2 -07.6147 26286.0
 28 10 2013  19 00  -21.0507 26054.2 -03483.3 -07.6149 26286.0
 28 10 2013  19 01  -21.0509 26054.2 -03483.3 -07.6150 26286.0
 28 10 2013  19 02  -21.0511 26054.2 -03483.4 -07.6151 26286.0
 28 10 2013  19 03  -21.0514 26054.3 -03483.5 -07.6153 26286.2
 28 10 2013  19 04  -21.0518 26054.4 -03483.6 -07.6155 26286.2
 28 10 2013  19 05  -21.0521 26054.3 -03483.5 -07.6154 26286.1
 28 10 2013  19 06  -21.0523 26054.2 -03483.4 -07.6152 26286.0
 28 10 2013  19 07  -21.0524 26053.9 -03483.3 -07.6151 26285.7
 28 10 2013  19 08  -21.0525 26053.7 -03483.3 -07.6150 26285.5
 28 10 2013  19 09  -21.0525 26053.6 -03483.3 -07.6150 26285.4
 28 10 2013  19 10  -21.0525 26053.5 -03483.3 -07.6151 26285.3
 28 10 2013  19 11  -21.0524 26053.4 -03483.3 -07.6151 26285.2
 28 10 2013  19 12  -21.0523 26053.3 -03483.3 -07.6152 26285.2
 28 10 2013  19 13  -21.0522 26053.3 -03483.4 -07.6154 26285.1
 28 10 2013  19 14  -21.0522 26053.3 -03483.4 -07.6155 26285.1
 28 10 2013  19 15  -21.0520 26053.2 -03483.5 -07.6157 26285.1
 28 10 2013  19 16  -21.0519 26053.2 -03483.6 -07.6158 26285.1
 28 10 2013  19 17  -21.0516 26053.2 -03483.6 -07.6160 26285.0
 28 10 2013  19 18  -21.0515 26053.1 -03483.7 -07.6161 26284.9
 28 10 2013  19 19  -21.0513 26052.9 -03483.7 -07.6162 26284.8
 28 10 2013  19 20  -21.0511 26052.8 -03483.7 -07.6162 26284.6
 28 10 2013  19 21  -21.0507 26052.7 -03483.7 -07.6163 26284.5
 28 10 2013  19 22  -21.0503 26052.6 -03483.8 -07.6165 26284.5
 28 10 2013  19 23  -21.0499 26052.6 -03483.9 -07.6167 26284.5
 28 10 2013  19 24  -21.0495 26052.5 -03484.0 -07.6169 26284.4
 28 10 2013  19 25  -21.0491 26052.5 -03484.1 -07.6172 26284.4
 28 10 2013  19 26  -21.0487 26052.5 -03484.2 -07.6174 26284.4
 28 10 2013  19 27  -21.0483 26052.5 -03484.3 -07.6176 26284.4
 28 10 2013  19 28  -21.0480 26052.5 -03484.4 -07.6179 26284.5
 28 10 2013  19 29  -21.0478 26052.4 -03484.5 -07.6181 26284.4
 28 10 2013  19 30  -21.0475 26052.3 -03484.5 -07.6182 26284.3
 28 10 2013  19 31  -21.0471 26052.2 -03484.6 -07.6183 26284.2
 28 10 2013  19 32  -21.0469 26052.0 -03484.6 -07.6184 26284.1
 28 10 2013  19 33  -21.0466 26051.9 -03484.7 -07.6187 26284.0
 28 10 2013  19 34  -21.0463 26051.8 -03484.8 -07.6189 26283.9
 28 10 2013  19 35  -21.0461 26051.7 -03484.9 -07.6191 26283.8
 28 10 2013  19 36  -21.0458 26051.6 -03484.9 -07.6192 26283.6
 28 10 2013  19 37  -21.0456 26051.5 -03485.0 -07.6194 26283.5
 28 10 2013  19 38  -21.0455 26051.3 -03485.1 -07.6196 26283.4
 28 10 2013  19 39  -21.0452 26051.1 -03485.1 -07.6197 26283.2
 28 10 2013  19 40  -21.0451 26050.9 -03485.2 -07.6200 26283.0
 28 10 2013  19 41  -21.0448 26050.8 -03485.3 -07.6202 26282.9
 28 10 2013  19 42  -21.0446 26050.8 -03485.4 -07.6204 26282.9
 28 10 2013  19 43  -21.0443 26050.7 -03485.5 -07.6207 26282.8
 28 10 2013  19 44  -21.0441 26050.6 -03485.6 -07.6210 26282.8
 28 10 2013  19 45  -21.0439 26050.6 -03485.7 -07.6211 26282.7
 28 10 2013  19 46  -21.0437 26050.4 -03485.8 -07.6214 26282.6
 28 10 2013  19 47  -21.0434 26050.3 -03485.9 -07.6216 26282.5
 28 10 2013  19 48  -21.0432 26050.2 -03485.9 -07.6218 26282.4
 28 10 2013  19 49  -21.0430 26050.1 -03486.0 -07.6219 26282.3
 28 10 2013  19 50  -21.0427 26049.8 -03485.9 -07.6219 26282.0
 28 10 2013  19 51  -21.0425 26049.5 -03485.9 -07.6220 26281.7
 28 10 2013  19 52  -21.0422 26049.2 -03485.9 -07.6221 26281.5
 28 10 2013  19 53  -21.0419 26049.0 -03485.9 -07.6221 26281.2
 28 10 2013  19 54  -21.0416 26048.9 -03486.0 -07.6224 26281.1
 28 10 2013  19 55  -21.0411 26048.9 -03486.1 -07.6226 26281.2
 28 10 2013  19 56  -21.0407 26049.0 -03486.3 -07.6230 26281.3
 28 10 2013  19 57  -21.0403 26049.2 -03486.5 -07.6234 26281.5
 28 10 2013  19 58  -21.0399 26049.3 -03486.7 -07.6237 26281.7
 28 10 2013  19 59  -21.0396 26049.5 -03486.8 -07.6239 26281.8
 28 10 2013  20 00  -21.0390 26049.5 -03486.9 -07.6241 26281.8
 28 10 2013  20 01  -21.0387 26049.4 -03487.0 -07.6244 26281.8
 28 10 2013  20 02  -21.0384 26049.3 -03487.0 -07.6244 26281.7
 28 10 2013  20 03  -21.0380 26049.1 -03487.0 -07.6244 26281.5
 28 10 2013  20 04  -21.0377 26049.0 -03487.0 -07.6245 26281.3
 28 10 2013  20 05  -21.0374 26048.6 -03487.0 -07.6245 26281.0
 28 10 2013  20 06  -21.0371 26048.2 -03486.9 -07.6244 26280.6
 28 10 2013  20 07  -21.0368 26047.8 -03486.8 -07.6243 26280.1
 28 10 2013  20 08  -21.0365 26047.4 -03486.7 -07.6243 26279.7
 28 10 2013  20 09  -21.0360 26047.1 -03486.7 -07.6243 26279.4
 28 10 2013  20 10  -21.0356 26046.9 -03486.8 -07.6246 26279.3
 28 10 2013  20 11  -21.0353 26046.8 -03486.9 -07.6248 26279.2
 28 10 2013  20 12  -21.0348 26046.7 -03487.0 -07.6250 26279.1
 28 10 2013  20 13  -21.0343 26046.7 -03487.1 -07.6253 26279.1
 28 10 2013  20 14  -21.0336 26046.6 -03487.2 -07.6255 26279.0
 28 10 2013  20 15  -21.0331 26046.7 -03487.4 -07.6259 26279.2
 28 10 2013  20 16  -21.0324 26046.7 -03487.6 -07.6263 26279.2
 28 10 2013  20 17  -21.0319 26046.6 -03487.6 -07.6265 26279.1
 28 10 2013  20 18  -21.0314 26046.4 -03487.7 -07.6267 26278.9
 28 10 2013  20 19  -21.0308 26046.1 -03487.7 -07.6269 26278.6
 28 10 2013  20 20  -21.0303 26045.8 -03487.8 -07.6270 26278.3
 28 10 2013  20 21  -21.0296 26045.6 -03487.8 -07.6272 26278.1
 28 10 2013  20 22  -21.0291 26045.5 -03487.9 -07.6275 26278.0
 28 10 2013  20 23  -21.0285 26045.3 -03488.1 -07.6278 26277.8
 28 10 2013  20 24  -21.0278 26045.1 -03488.1 -07.6279 26277.6
 28 10 2013  20 25  -21.0270 26044.9 -03488.2 -07.6283 26277.4
 28 10 2013  20 26  -21.0261 26044.9 -03488.4 -07.6288 26277.5
 28 10 2013  20 27  -21.0255 26045.1 -03488.7 -07.6294 26277.7
 28 10 2013  20 28  -21.0248 26045.0 -03489.0 -07.6299 26277.7
 28 10 2013  20 29  -21.0243 26044.8 -03489.1 -07.6301 26277.5
 28 10 2013  20 30  -21.0236 26044.5 -03489.1 -07.6304 26277.2
 28 10 2013  20 31  -21.0229 26044.4 -03489.3 -07.6307 26277.1
 28 10 2013  20 32  -21.0222 26044.3 -03489.5 -07.6312 26277.1
 28 10 2013  20 33  -21.0218 26044.3 -03489.7 -07.6317 26277.0
 28 10 2013  20 34  -21.0216 26043.9 -03489.8 -07.6319 26276.7
 28 10 2013  20 35  -21.0212 26043.2 -03489.6 -07.6318 26276.0
 28 10 2013  20 36  -21.0209 26042.5 -03489.5 -07.6317 26275.2
 28 10 2013  20 37  -21.0203 26041.9 -03489.4 -07.6317 26274.7
 28 10 2013  20 38  -21.0197 26041.6 -03489.5 -07.6320 26274.4
 28 10 2013  20 39  -21.0190 26041.4 -03489.7 -07.6324 26274.2
 28 10 2013  20 40  -21.0183 26041.3 -03489.8 -07.6327 26274.1
 28 10 2013  20 41  -21.0177 26041.1 -03489.9 -07.6331 26274.0
 28 10 2013  20 42  -21.0172 26041.1 -03490.1 -07.6335 26273.9
 28 10 2013  20 43  -21.0166 26041.0 -03490.1 -07.6335 26273.8
 28 10 2013  20 44  -21.0159 26040.9 -03490.5 -07.6344 26273.8
 28 10 2013  20 45  -21.0153 26040.8 -03490.7 -07.6348 26273.7
 28 10 2013  20 46  -21.0148 26040.6 -03490.9 -07.6353 26273.5
 28 10 2013  20 47  -21.0142 26040.2 -03491.0 -07.6356 26273.2
 28 10 2013  20 48  -21.0137 26039.9 -03491.1 -07.6360 26272.9
 28 10 2013  20 49  -21.0133 26039.7 -03491.4 -07.6366 26272.7
 28 10 2013  20 50  -21.0129 26039.5 -03491.6 -07.6371 26272.5
 28 10 2013  20 51  -21.0124 26039.4 -03491.8 -07.6377 26272.5
 28 10 2013  20 52  -21.0121 26039.3 -03492.2 -07.6384 26272.4
 28 10 2013  20 53  -21.0120 26039.2 -03492.5 -07.6391 26272.3
 28 10 2013  20 54  -21.0118 26039.0 -03492.7 -07.6397 26272.2
 28 10 2013  20 55  -21.0115 26038.8 -03493.0 -07.6403 26272.1
 28 10 2013  20 56  -21.0115 26038.7 -03493.2 -07.6409 26272.0
 28 10 2013  20 57  -21.0116 26038.8 -03493.6 -07.6416 26272.1
 28 10 2013  20 58  -21.0114 26038.8 -03493.8 -07.6422 26272.1
 28 10 2013  20 59  -21.0117 26038.6 -03494.1 -07.6429 26272.0
 28 10 2013  21 00  -21.0119 26038.3 -03494.3 -07.6434 26271.8
 28 10 2013  21 01  -21.0121 26038.1 -03494.5 -07.6439 26271.6
 28 10 2013  21 02  -21.0124 26038.0 -03494.7 -07.6443 26271.5
 28 10 2013  21 03  -21.0125 26037.9 -03494.9 -07.6448 26271.4
 28 10 2013  21 04  -21.0128 26037.8 -03495.1 -07.6452 26271.3
 28 10 2013  21 05  -21.0132 26037.5 -03495.2 -07.6455 26271.1
 28 10 2013  21 06  -21.0136 26037.2 -03495.3 -07.6458 26270.8
 28 10 2013  21 07  -21.0137 26036.9 -03495.3 -07.6459 26270.5
 28 10 2013  21 08  -21.0138 26036.5 -03495.2 -07.6459 26270.1
 28 10 2013  21 09  -21.0138 26036.2 -03495.2 -07.6459 26269.7
 28 10 2013  21 10  -21.0139 26035.8 -03495.2 -07.6460 26269.3
 28 10 2013  21 11  -21.0139 26035.4 -03495.1 -07.6460 26269.0
 28 10 2013  21 12  -21.0139 26035.2 -03495.1 -07.6460 26268.8
 28 10 2013  21 13  -21.0139 26035.1 -03495.3 -07.6463 26268.7
 28 10 2013  21 14  -21.0138 26035.0 -03495.4 -07.6467 26268.6
 28 10 2013  21 15  -21.0136 26035.0 -03495.6 -07.6470 26268.6
 28 10 2013  21 16  -21.0135 26034.9 -03495.7 -07.6472 26268.5
 28 10 2013  21 17  -21.0133 26034.8 -03495.8 -07.6475 26268.5
 28 10 2013  21 18  -21.0133 26034.7 -03495.9 -07.6478 26268.4
 28 10 2013  21 19  -21.0132 26034.5 -03495.9 -07.6480 26268.2
 28 10 2013  21 20  -21.0131 26034.3 -03496.0 -07.6481 26268.0
 28 10 2013  21 21  -21.0129 26034.3 -03496.1 -07.6484 26268.0
 28 10 2013  21 22  -21.0128 26034.2 -03496.2 -07.6486 26267.9
 28 10 2013  21 23  -21.0125 26034.1 -03496.3 -07.6488 26267.8
 28 10 2013  21 24  -21.0124 26034.0 -03496.3 -07.6490 26267.7
 28 10 2013  21 25  -21.0124 26033.8 -03496.4 -07.6491 26267.6
 28 10 2013  21 26  -21.0124 26033.6 -03496.4 -07.6492 26267.3
 28 10 2013  21 27  -21.0122 26033.6 -03496.5 -07.6495 26267.4
 28 10 2013  21 28  -21.0120 26033.8 -03496.7 -07.6498 26267.5
 28 10 2013  21 29  -21.0119 26033.9 -03496.9 -07.6502 26267.7
 28 10 2013  21 30  -21.0119 26033.8 -03497.1 -07.6506 26267.6
 28 10 2013  21 31  -21.0120 26033.4 -03496.9 -07.6503 26267.2
 28 10 2013  21 32  -21.0117 26033.3 -03496.8 -07.6501 26267.1
 28 10 2013  21 33  -21.0116 26033.5 -03497.1 -07.6508 26267.3
 28 10 2013  21 34  -21.0114 26033.6 -03497.3 -07.6511 26267.4
 28 10 2013  21 35  -21.0113 26033.4 -03497.3 -07.6513 26267.3
 28 10 2013  21 36  -21.0111 26033.2 -03497.3 -07.6514 26267.1
 28 10 2013  21 37  -21.0110 26032.9 -03497.3 -07.6513 26266.8
 28 10 2013  21 38  -21.0108 26032.9 -03497.3 -07.6514 26266.8
 28 10 2013  21 39  -21.0108 26032.9 -03497.5 -07.6517 26266.8
 28 10 2013  21 40  -21.0108 26032.8 -03497.5 -07.6518 26266.7
 28 10 2013  21 41  -21.0109 26032.7 -03497.5 -07.6519 26266.6
 28 10 2013  21 42  -21.0109 26032.5 -03497.6 -07.6520 26266.4
 28 10 2013  21 43  -21.0107 26032.4 -03497.5 -07.6520 26266.3
 28 10 2013  21 44  -21.0108 26032.2 -03497.6 -07.6521 26266.1
 28 10 2013  21 45  -21.0106 26032.1 -03497.6 -07.6522 26266.0
 28 10 2013  21 46  -21.0104 26032.0 -03497.6 -07.6522 26265.9
 28 10 2013  21 47  -21.0103 26031.9 -03497.6 -07.6523 26265.8
 28 10 2013  21 48  -21.0101 26031.9 -03497.7 -07.6525 26265.8
 28 10 2013  21 49  -21.0099 26031.8 -03497.7 -07.6526 26265.7
 28 10 2013  21 50  -21.0096 26031.8 -03497.7 -07.6526 26265.7
 28 10 2013  21 51  -21.0094 26031.7 -03497.8 -07.6528 26265.7
 28 10 2013  21 52  -21.0091 26031.6 -03497.8 -07.6529 26265.6
 28 10 2013  21 53  -21.0090 26031.7 -03497.9 -07.6530 26265.6
 28 10 2013  21 54  -21.0087 26031.7 -03498.0 -07.6532 26265.7
 28 10 2013  21 55  -21.0085 26031.6 -03498.0 -07.6533 26265.6
 28 10 2013  21 56  -21.0083 26031.6 -03498.0 -07.6534 26265.6
 28 10 2013  21 57  -21.0082 26031.5 -03498.1 -07.6535 26265.5
 28 10 2013  21 58  -21.0080 26031.4 -03498.1 -07.6535 26265.4
 28 10 2013  21 59  -21.0079 26031.3 -03498.1 -07.6535 26265.3
 28 10 2013  22 00  -21.0077 26031.4 -03498.2 -07.6537 26265.4
 28 10 2013  22 01  -21.0075 26031.4 -03498.2 -07.6538 26265.4
 28 10 2013  22 02  -21.0072 26031.4 -03498.3 -07.6539 26265.4
 28 10 2013  22 03  -21.0071 26031.3 -03498.3 -07.6540 26265.3
 28 10 2013  22 04  -21.0071 26031.2 -03498.3 -07.6541 26265.2
 28 10 2013  22 05  -21.0070 26031.2 -03498.4 -07.6542 26265.2
 28 10 2013  22 06  -21.0071 26031.2 -03498.5 -07.6544 26265.3
 28 10 2013  22 07  -21.0071 26031.2 -03498.5 -07.6545 26265.2
 28 10 2013  22 08  -21.0069 26030.9 -03498.5 -07.6544 26265.0
 28 10 2013  22 09  -21.0067 26030.8 -03498.4 -07.6544 26264.8
 28 10 2013  22 10  -21.0067 26030.8 -03498.4 -07.6545 26264.8
 28 10 2013  22 11  -21.0066 26030.7 -03498.5 -07.6546 26264.8
 28 10 2013  22 12  -21.0066 26030.7 -03498.5 -07.6547 26264.7
 28 10 2013  22 13  -21.0066 26030.6 -03498.5 -07.6547 26264.7
 28 10 2013  22 14  -21.0066 26030.5 -03498.6 -07.6548 26264.6
 28 10 2013  22 15  -21.0066 26030.4 -03498.6 -07.6549 26264.5
 28 10 2013  22 16  -21.0067 26030.5 -03498.7 -07.6551 26264.5
 28 10 2013  22 17  -21.0066 26030.5 -03498.8 -07.6553 26264.6
 28 10 2013  22 18  -21.0065 26030.5 -03498.8 -07.6554 26264.6
 28 10 2013  22 19  -21.0064 26030.4 -03498.8 -07.6554 26264.5
 28 10 2013  22 20  -21.0064 26030.3 -03498.9 -07.6555 26264.4
 28 10 2013  22 21  -21.0063 26030.3 -03498.9 -07.6555 26264.4
 28 10 2013  22 22  -21.0062 26030.3 -03498.9 -07.6557 26264.4
 28 10 2013  22 23  -21.0060 26030.3 -03499.0 -07.6557 26264.4
 28 10 2013  22 24  -21.0059 26030.3 -03499.0 -07.6559 26264.4
 28 10 2013  22 25  -21.0059 26030.2 -03499.0 -07.6559 26264.4
 28 10 2013  22 26  -21.0058 26030.3 -03499.1 -07.6561 26264.4
 28 10 2013  22 27  -21.0056 26030.3 -03499.2 -07.6562 26264.4
 28 10 2013  22 28  -21.0055 26030.3 -03499.3 -07.6564 26264.4
 28 10 2013  22 29  -21.0053 26030.2 -03499.2 -07.6564 26264.3
 28 10 2013  22 30  -21.0050 26030.1 -03499.2 -07.6564 26264.3
 28 10 2013  22 31  -21.0049 26030.0 -03499.3 -07.6565 26264.2
 28 10 2013  22 32  -21.0047 26030.0 -03499.3 -07.6566 26264.2
 28 10 2013  22 33  -21.0046 26030.0 -03499.4 -07.6567 26264.2
 28 10 2013  22 34  -21.0044 26030.0 -03499.4 -07.6568 26264.2
 28 10 2013  22 35  -21.0042 26030.0 -03499.5 -07.6569 26264.2
 28 10 2013  22 36  -21.0041 26030.0 -03499.5 -07.6570 26264.2
 28 10 2013  22 37  -21.0039 26029.9 -03499.5 -07.6570 26264.1
 28 10 2013  22 38  -21.0037 26029.9 -03499.5 -07.6570 26264.1
 28 10 2013  22 39  -21.0035 26029.9 -03499.5 -07.6571 26264.1
 28 10 2013  22 40  -21.0033 26029.8 -03499.6 -07.6572 26264.0
 28 10 2013  22 41  -21.0032 26029.8 -03499.6 -07.6572 26264.0
 28 10 2013  22 42  -21.0030 26029.8 -03499.6 -07.6573 26264.0
 28 10 2013  22 43  -21.0027 26029.8 -03499.6 -07.6573 26264.0
 28 10 2013  22 44  -21.0025 26029.8 -03499.7 -07.6574 26264.0
 28 10 2013  22 45  -21.0022 26029.7 -03499.7 -07.6574 26263.9
 28 10 2013  22 46  -21.0019 26029.7 -03499.7 -07.6575 26263.9
 28 10 2013  22 47  -21.0017 26029.8 -03499.8 -07.6576 26264.0
 28 10 2013  22 48  -21.0016 26029.8 -03499.8 -07.6577 26264.1
 28 10 2013  22 49  -21.0014 26029.7 -03499.8 -07.6578 26264.0
 28 10 2013  22 50  -21.0012 26029.5 -03499.7 -07.6576 26263.7
 28 10 2013  22 51  -21.0011 26029.4 -03499.7 -07.6576 26263.7
 28 10 2013  22 52  -21.0010 26029.5 -03499.8 -07.6577 26263.7
 28 10 2013  22 53  -21.0007 26029.5 -03499.8 -07.6578 26263.8
 28 10 2013  22 54  -21.0006 26029.7 -03499.9 -07.6580 26263.9
 28 10 2013  22 55  -21.0004 26029.7 -03500.0 -07.6581 26263.9
 28 10 2013  22 56  -21.0003 26029.5 -03499.9 -07.6580 26263.8
 28 10 2013  22 57  -21.0002 26029.4 -03499.9 -07.6580 26263.7
 28 10 2013  22 58  -21.0001 26029.4 -03499.9 -07.6580 26263.7
 28 10 2013  22 59  -20.9999 26029.4 -03499.9 -07.6581 26263.6
 28 10 2013  23 00  -20.9998 26029.3 -03500.0 -07.6582 26263.6
 28 10 2013  23 01  -20.9996 26029.3 -03500.0 -07.6582 26263.6
 28 10 2013  23 02  -20.9994 26029.3 -03500.0 -07.6582 26263.6
 28 10 2013  23 03  -20.9991 26029.4 -03500.0 -07.6583 26263.6
 28 10 2013  23 04  -20.9990 26029.5 -03500.1 -07.6584 26263.8
 28 10 2013  23 05  -20.9988 26029.7 -03500.2 -07.6586 26264.0
 28 10 2013  23 06  -20.9986 26029.8 -03500.3 -07.6588 26264.1
 28 10 2013  23 07  -20.9986 26029.8 -03500.3 -07.6589 26264.1
 28 10 2013  23 08  -20.9986 26029.8 -03500.4 -07.6589 26264.1
 28 10 2013  23 09  -20.9987 26029.9 -03500.4 -07.6591 26264.2
 28 10 2013  23 10  -20.9987 26030.0 -03500.5 -07.6591 26264.3
 28 10 2013  23 11  -20.9988 26029.9 -03500.5 -07.6592 26264.2
 28 10 2013  23 12  -20.9988 26029.8 -03500.4 -07.6590 26264.1
 28 10 2013  23 13  -20.9988 26029.6 -03500.4 -07.6589 26263.9
 28 10 2013  23 14  -20.9987 26029.5 -03500.3 -07.6588 26263.8
 28 10 2013  23 15  -20.9986 26029.4 -03500.2 -07.6587 26263.7
 28 10 2013  23 16  -20.9984 26029.4 -03500.2 -07.6587 26263.7
 28 10 2013  23 17  -20.9984 26029.4 -03500.3 -07.6588 26263.7
 28 10 2013  23 18  -20.9983 26029.4 -03500.3 -07.6588 26263.7
 28 10 2013  23 19  -20.9984 26029.3 -03500.3 -07.6589 26263.6
 28 10 2013  23 20  -20.9983 26029.2 -03500.3 -07.6589 26263.5
 28 10 2013  23 21  -20.9982 26029.2 -03500.3 -07.6589 26263.5
 28 10 2013  23 22  -20.9981 26029.4 -03500.4 -07.6591 26263.7
 28 10 2013  23 23  -20.9979 26029.5 -03500.5 -07.6593 26263.8
 28 10 2013  23 24  -20.9977 26029.5 -03500.5 -07.6594 26263.9
 28 10 2013  23 25  -20.9973 26029.5 -03500.5 -07.6593 26263.8
 28 10 2013  23 26  -20.9971 26029.5 -03500.5 -07.6593 26263.9
 28 10 2013  23 27  -20.9968 26029.6 -03500.6 -07.6594 26263.9
 28 10 2013  23 28  -20.9968 26029.6 -03500.6 -07.6596 26264.0
 28 10 2013  23 29  -20.9967 26029.7 -03500.7 -07.6596 26264.0
 28 10 2013  23 30  -20.9965 26029.6 -03500.7 -07.6597 26264.0
 28 10 2013  23 31  -20.9961 26029.7 -03500.7 -07.6597 26264.0
 28 10 2013  23 32  -20.9958 26029.7 -03500.7 -07.6598 26264.0
 28 10 2013  23 33  -20.9956 26029.7 -03500.8 -07.6599 26264.1
 28 10 2013  23 34  -20.9954 26029.9 -03500.9 -07.6601 26264.3
 28 10 2013  23 35  -20.9954 26030.0 -03501.0 -07.6602 26264.4
 28 10 2013  23 36  -20.9954 26030.1 -03501.1 -07.6604 26264.5
 28 10 2013  23 37  -20.9955 26030.1 -03501.1 -07.6604 26264.5
 28 10 2013  23 38  -20.9954 26030.1 -03501.1 -07.6604 26264.5
 28 10 2013  23 39  -20.9952 26030.1 -03501.1 -07.6603 26264.5
 28 10 2013  23 40  -20.9951 26030.1 -03501.1 -07.6603 26264.5
 28 10 2013  23 41  -20.9951 26030.1 -03501.1 -07.6604 26264.5
 28 10 2013  23 42  -20.9951 26030.1 -03501.1 -07.6604 26264.5
 28 10 2013  23 43  -20.9950 26030.3 -03501.2 -07.6605 26264.7
 28 10 2013  23 44  -20.9949 26030.5 -03501.3 -07.6607 26265.0
 28 10 2013  23 45  -20.9951 26030.4 -03501.3 -07.6608 26264.9
 28 10 2013  23 46  -20.9953 26030.3 -03501.2 -07.6606 26264.7
 28 10 2013  23 47  -20.9956 26030.3 -03501.3 -07.6607 26264.8
 28 10 2013  23 48  -20.9959 26030.4 -03501.3 -07.6608 26264.9
 28 10 2013  23 49  -20.9962 26030.4 -03501.3 -07.6608 26264.9
 28 10 2013  23 50  -20.9964 26030.4 -03501.3 -07.6608 26264.9
 28 10 2013  23 51  -20.9964 26030.3 -03501.2 -07.6606 26264.7
 28 10 2013  23 52  -20.9964 26030.0 -03501.1 -07.6604 26264.3
 28 10 2013  23 53  -20.9964 26029.8 -03500.9 -07.6601 26264.2
 28 10 2013  23 54  -20.9963 26029.9 -03500.9 -07.6601 26264.2
 28 10 2013  23 55  -20.9961 26029.9 -03501.0 -07.6602 26264.3
 28 10 2013  23 56  -20.9960 26030.0 -03501.0 -07.6603 26264.4
 28 10 2013  23 57  -20.9961 26030.1 -03501.1 -07.6604 26264.5
